|6.6.6
primRef_quadrant2_1.tab                                                                             
           2
T(K)    
   300.00000000000000     
   47.435897435897438     
          40
P(bar)  
   700000.00000000000     
   17948.717948717949     
          40
           6
T(K)           P(bar)         mode           rho,kg/m3      Ks,bar         Gs,bar        
  300.000        700000.       0.128376E+011   5210.56       0.523161E+007  0.253465E+007
  347.436        700000.       0.129947E+011   5208.43       0.522726E+007  0.252952E+007
  394.872        700000.       0.131731E+011   5206.01       0.522231E+007  0.252369E+007
  442.308        700000.       0.133683E+011   5203.36       0.521689E+007  0.251731E+007
  489.744        700000.       0.135770E+011   5200.51       0.521110E+007  0.251048E+007
  537.179        700000.       0.137964E+011   5197.52       0.520500E+007  0.250330E+007
  584.615        700000.       0.140243E+011   5194.41       0.519866E+007  0.249582E+007
  632.051        700000.       0.142593E+011   5191.19       0.519211E+007  0.248810E+007
  679.487        700000.       0.145001E+011   5187.89       0.518540E+007  0.248019E+007
  726.923        700000.       0.147455E+011   5184.51       0.517854E+007  0.247211E+007
  774.359        700000.       0.149949E+011   5181.08       0.517157E+007  0.246389E+007
  821.795        700000.       0.152477E+011   5177.60       0.516450E+007  0.245554E+007
  869.231        700000.       0.155032E+011   5174.06       0.515734E+007  0.244709E+007
  916.667        700000.       0.157611E+011   5170.49       0.515011E+007  0.243855E+007
  964.103        700000.       0.160210E+011   5166.88       0.514281E+007  0.242993E+007
  1011.54        700000.       0.162827E+011   5163.25       0.513545E+007  0.242124E+007
  1058.97        700000.       0.165458E+011   5159.58       0.512805E+007  0.241248E+007
  1106.41        700000.       0.168103E+011   5155.89       0.512059E+007  0.240366E+007
  1153.85        700000.       0.170759E+011   5152.17       0.511310E+007  0.239479E+007
  1201.28        700000.       0.173425E+011   5148.43       0.510556E+007  0.238588E+007
  1248.72        700000.       0.176100E+011   5144.67       0.509800E+007  0.237692E+007
  1296.15        700000.       0.178782E+011   5140.89       0.509040E+007  0.236791E+007
  1343.59        700000.       0.181471E+011   5137.10       0.508277E+007  0.235888E+007
  1391.03        700000.       0.184166E+011   5133.29       0.507512E+007  0.234980E+007
  1438.46        700000.       0.186866E+011   5129.46       0.506744E+007  0.234069E+007
  1485.90        700000.       0.189570E+011   5125.62       0.505974E+007  0.233155E+007
  1533.33        700000.       0.192279E+011   5121.76       0.505202E+007  0.232238E+007
  1580.77        700000.       0.194990E+011   5117.89       0.504428E+007  0.231318E+007
  1628.21        700000.       0.197705E+011   5114.01       0.503652E+007  0.230396E+007
  1675.64        700000.       0.200423E+011   5110.11       0.502874E+007  0.229471E+007
  1723.08        700000.       0.203142E+011   5106.20       0.502094E+007  0.228543E+007
  1770.51        700000.       0.205864E+011   5102.28       0.501313E+007  0.227613E+007
  1817.95        700000.       0.208588E+011   5098.35       0.500530E+007  0.226681E+007
  1865.38        700000.       0.211313E+011   5094.41       0.499746E+007  0.225747E+007
  1912.82        700000.       0.214039E+011   5090.45       0.498960E+007  0.224810E+007
  1960.26        700000.       0.216767E+011   5086.49       0.498173E+007  0.223871E+007
  2007.69        700000.       0.219495E+011   5082.51       0.497384E+007  0.222930E+007
  2055.13        700000.       0.222224E+011   5078.53       0.496594E+007  0.221987E+007
  2102.56        700000.       0.224953E+011   5074.53       0.495803E+007  0.221042E+007
  2150.00        700000.       0.227683E+011   5070.53       0.495005E+007  0.220096E+007
  300.000        717949.       0.146753E+011   5228.42       0.529599E+007  0.255381E+007
  347.436        717949.       0.148315E+011   5226.31       0.529167E+007  0.254872E+007
  394.872        717949.       0.150091E+011   5223.92       0.528676E+007  0.254294E+007
  442.308        717949.       0.152035E+011   5221.29       0.528138E+007  0.253660E+007
  489.744        717949.       0.154115E+011   5218.48       0.527562E+007  0.252982E+007
  537.179        717949.       0.156302E+011   5215.52       0.526955E+007  0.252268E+007
  584.615        717949.       0.158576E+011   5212.44       0.526324E+007  0.251525E+007
  632.051        717949.       0.160920E+011   5209.25       0.525673E+007  0.250759E+007
  679.487        717949.       0.163322E+011   5205.98       0.525005E+007  0.249972E+007
  726.923        717949.       0.165771E+011   5202.64       0.524322E+007  0.249168E+007
  774.359        717949.       0.168260E+011   5199.24       0.523628E+007  0.248351E+007
  821.795        717949.       0.170783E+011   5195.79       0.522924E+007  0.247521E+007
  869.231        717949.       0.173333E+011   5192.29       0.522212E+007  0.246680E+007
  916.667        717949.       0.175908E+011   5188.75       0.521491E+007  0.245831E+007
  964.103        717949.       0.178503E+011   5185.17       0.520765E+007  0.244973E+007
  1011.54        717949.       0.181115E+011   5181.57       0.520032E+007  0.244108E+007
  1058.97        717949.       0.183743E+011   5177.93       0.519294E+007  0.243237E+007
  1106.41        717949.       0.186384E+011   5174.27       0.518552E+007  0.242360E+007
  1153.85        717949.       0.189036E+011   5170.59       0.517805E+007  0.241478E+007
  1201.28        717949.       0.191698E+011   5166.89       0.517055E+007  0.240591E+007
  1248.72        717949.       0.194369E+011   5163.16       0.516302E+007  0.239699E+007
  1296.15        717949.       0.197048E+011   5159.42       0.515545E+007  0.238804E+007
  1343.59        717949.       0.199733E+011   5155.66       0.514785E+007  0.237904E+007
  1391.03        717949.       0.202424E+011   5151.88       0.514023E+007  0.237002E+007
  1438.46        717949.       0.205121E+011   5148.09       0.513259E+007  0.236096E+007
  1485.90        717949.       0.207821E+011   5144.28       0.512492E+007  0.235186E+007
  1533.33        717949.       0.210526E+011   5140.46       0.511723E+007  0.234274E+007
  1580.77        717949.       0.213235E+011   5136.62       0.510952E+007  0.233359E+007
  1628.21        717949.       0.215946E+011   5132.78       0.510179E+007  0.232441E+007
  1675.64        717949.       0.218660E+011   5128.92       0.509404E+007  0.231521E+007
  1723.08        717949.       0.221376E+011   5125.04       0.508628E+007  0.230599E+007
  1770.51        717949.       0.224095E+011   5121.16       0.507850E+007  0.229673E+007
  1817.95        717949.       0.226815E+011   5117.26       0.507070E+007  0.228746E+007
  1865.38        717949.       0.229536E+011   5113.36       0.506289E+007  0.227817E+007
  1912.82        717949.       0.232259E+011   5109.44       0.505507E+007  0.226885E+007
  1960.26        717949.       0.234983E+011   5105.51       0.504723E+007  0.225951E+007
  2007.69        717949.       0.237708E+011   5101.58       0.503937E+007  0.225015E+007
  2055.13        717949.       0.240434E+011   5097.63       0.503151E+007  0.224077E+007
  2102.56        717949.       0.243160E+011   5093.67       0.502363E+007  0.223137E+007
  2150.00        717949.       0.245886E+011   5089.70       0.501574E+007  0.222196E+007
  300.000        735897.       0.165187E+011   5246.11       0.536025E+007  0.257282E+007
  347.436        735897.       0.166741E+011   5244.04       0.535596E+007  0.256778E+007
  394.872        735897.       0.168508E+011   5241.67       0.535109E+007  0.256204E+007
  442.308        735897.       0.170445E+011   5239.07       0.534574E+007  0.255575E+007
  489.744        735897.       0.172518E+011   5236.29       0.534001E+007  0.254902E+007
  537.179        735897.       0.174699E+011   5233.36       0.533398E+007  0.254193E+007
  584.615        735897.       0.176966E+011   5230.31       0.532770E+007  0.253454E+007
  632.051        735897.       0.179305E+011   5227.15       0.532122E+007  0.252692E+007
  679.487        735897.       0.181701E+011   5223.91       0.531456E+007  0.251909E+007
  726.923        735897.       0.184146E+011   5220.60       0.530777E+007  0.251110E+007
  774.359        735897.       0.186630E+011   5217.23       0.530086E+007  0.250297E+007
  821.795        735897.       0.189148E+011   5213.81       0.529385E+007  0.249472E+007
  869.231        735897.       0.191694E+011   5210.34       0.528676E+007  0.248636E+007
  916.667        735897.       0.194264E+011   5206.84       0.527959E+007  0.247791E+007
  964.103        735897.       0.196855E+011   5203.29       0.527235E+007  0.246938E+007
  1011.54        735897.       0.199464E+011   5199.72       0.526505E+007  0.246077E+007
  1058.97        735897.       0.202088E+011   5196.12       0.525770E+007  0.245211E+007
  1106.41        735897.       0.204725E+011   5192.49       0.525031E+007  0.244338E+007
  1153.85        735897.       0.207373E+011   5188.84       0.524287E+007  0.243460E+007
  1201.28        735897.       0.210032E+011   5185.17       0.523540E+007  0.242578E+007
  1248.72        735897.       0.212699E+011   5181.48       0.522790E+007  0.241691E+007
  1296.15        735897.       0.215374E+011   5177.77       0.522036E+007  0.240800E+007
  1343.59        735897.       0.218056E+011   5174.04       0.521279E+007  0.239905E+007
  1391.03        735897.       0.220744E+011   5170.30       0.520520E+007  0.239007E+007
  1438.46        735897.       0.223437E+011   5166.54       0.519759E+007  0.238105E+007
  1485.90        735897.       0.226134E+011   5162.77       0.518994E+007  0.237201E+007
  1533.33        735897.       0.228836E+011   5158.98       0.518229E+007  0.236293E+007
  1580.77        735897.       0.231541E+011   5155.18       0.517461E+007  0.235383E+007
  1628.21        735897.       0.234249E+011   5151.36       0.516691E+007  0.234470E+007
  1675.64        735897.       0.236959E+011   5147.54       0.515920E+007  0.233554E+007
  1723.08        735897.       0.239672E+011   5143.70       0.515146E+007  0.232636E+007
  1770.51        735897.       0.242388E+011   5139.85       0.514372E+007  0.231716E+007
  1817.95        735897.       0.245105E+011   5135.99       0.513595E+007  0.230793E+007
  1865.38        735897.       0.247823E+011   5132.12       0.512817E+007  0.229869E+007
  1912.82        735897.       0.250543E+011   5128.24       0.512038E+007  0.228942E+007
  1960.26        735897.       0.253263E+011   5124.35       0.511256E+007  0.228013E+007
  2007.69        735897.       0.255985E+011   5120.45       0.510475E+007  0.227082E+007
  2055.13        735897.       0.258707E+011   5116.54       0.509692E+007  0.226149E+007
  2102.56        735897.       0.261430E+011   5112.62       0.508907E+007  0.225214E+007
  2150.00        735897.       0.264153E+011   5108.68       0.508122E+007  0.224277E+007
  300.000        753846.       0.183677E+011   5263.66       0.542439E+007  0.259169E+007
  347.436        753846.       0.185223E+011   5261.61       0.542013E+007  0.258670E+007
  394.872        753846.       0.186982E+011   5259.27       0.541529E+007  0.258101E+007
  442.308        753846.       0.188912E+011   5256.70       0.540997E+007  0.257476E+007
  489.744        753846.       0.190978E+011   5253.95       0.540428E+007  0.256807E+007
  537.179        753846.       0.193152E+011   5251.04       0.539828E+007  0.256102E+007
  584.615        753846.       0.195414E+011   5248.02       0.539203E+007  0.255368E+007
  632.051        753846.       0.197747E+011   5244.89       0.538558E+007  0.254610E+007
  679.487        753846.       0.200138E+011   5241.68       0.537896E+007  0.253832E+007
  726.923        753846.       0.202578E+011   5238.41       0.537220E+007  0.253038E+007
  774.359        753846.       0.205057E+011   5235.07       0.536532E+007  0.252229E+007
  821.795        753846.       0.207571E+011   5231.67       0.535834E+007  0.251408E+007
  869.231        753846.       0.210113E+011   5228.24       0.535127E+007  0.250576E+007
  916.667        753846.       0.212679E+011   5224.76       0.534412E+007  0.249736E+007
  964.103        753846.       0.215266E+011   5221.25       0.533692E+007  0.248887E+007
  1011.54        753846.       0.217871E+011   5217.71       0.532965E+007  0.248031E+007
  1058.97        753846.       0.220491E+011   5214.14       0.532233E+007  0.247169E+007
  1106.41        753846.       0.223124E+011   5210.54       0.531496E+007  0.246300E+007
  1153.85        753846.       0.225769E+011   5206.93       0.530756E+007  0.245427E+007
  1201.28        753846.       0.228424E+011   5203.29       0.530012E+007  0.244549E+007
  1248.72        753846.       0.231088E+011   5199.63       0.529264E+007  0.243666E+007
  1296.15        753846.       0.233760E+011   5195.95       0.528513E+007  0.242780E+007
  1343.59        753846.       0.236438E+011   5192.25       0.527760E+007  0.241890E+007
  1391.03        753846.       0.239123E+011   5188.54       0.527003E+007  0.240996E+007
  1438.46        753846.       0.241813E+011   5184.82       0.526245E+007  0.240099E+007
  1485.90        753846.       0.244507E+011   5181.08       0.525484E+007  0.239199E+007
  1533.33        753846.       0.247205E+011   5177.32       0.524721E+007  0.238296E+007
  1580.77        753846.       0.249907E+011   5173.56       0.523956E+007  0.237390E+007
  1628.21        753846.       0.252612E+011   5169.78       0.523189E+007  0.236481E+007
  1675.64        753846.       0.255320E+011   5165.99       0.522420E+007  0.235570E+007
  1723.08        753846.       0.258030E+011   5162.18       0.521650E+007  0.234657E+007
  1770.51        753846.       0.260742E+011   5158.37       0.520879E+007  0.233741E+007
  1817.95        753846.       0.263455E+011   5154.54       0.520105E+007  0.232824E+007
  1865.38        753846.       0.266171E+011   5150.71       0.519330E+007  0.231904E+007
  1912.82        753846.       0.268887E+011   5146.86       0.518554E+007  0.230981E+007
  1960.26        753846.       0.271605E+011   5143.00       0.517777E+007  0.230057E+007
  2007.69        753846.       0.274324E+011   5139.14       0.516997E+007  0.229131E+007
  2055.13        753846.       0.277043E+011   5135.26       0.516218E+007  0.228203E+007
  2102.56        753846.       0.279763E+011   5131.38       0.515436E+007  0.227273E+007
  2150.00        753846.       0.282483E+011   5127.48       0.514654E+007  0.226341E+007
  300.000        771795.       0.202222E+011   5281.05       0.548840E+007  0.261043E+007
  347.436        771795.       0.203759E+011   5279.03       0.548419E+007  0.260547E+007
  394.872        771795.       0.205511E+011   5276.71       0.547937E+007  0.259983E+007
  442.308        771795.       0.207434E+011   5274.17       0.547409E+007  0.259363E+007
  489.744        771795.       0.209493E+011   5271.45       0.546842E+007  0.258698E+007
  537.179        771795.       0.211661E+011   5268.57       0.546245E+007  0.257998E+007
  584.615        771795.       0.213917E+011   5265.58       0.545624E+007  0.257268E+007
  632.051        771795.       0.216245E+011   5262.48       0.544981E+007  0.256515E+007
  679.487        771795.       0.218631E+011   5259.30       0.544322E+007  0.255741E+007
  726.923        771795.       0.221066E+011   5256.05       0.543649E+007  0.254951E+007
  774.359        771795.       0.223541E+011   5252.74       0.542964E+007  0.254146E+007
  821.795        771795.       0.226050E+011   5249.38       0.542269E+007  0.253330E+007
  869.231        771795.       0.228588E+011   5245.98       0.541565E+007  0.252502E+007
  916.667        771795.       0.231150E+011   5242.53       0.540854E+007  0.251666E+007
  964.103        771795.       0.233733E+011   5239.05       0.540135E+007  0.250821E+007
  1011.54        771795.       0.236335E+011   5235.54       0.539412E+007  0.249970E+007
  1058.97        771795.       0.238951E+011   5232.00       0.538682E+007  0.249111E+007
  1106.41        771795.       0.241581E+011   5228.44       0.537949E+007  0.248248E+007
  1153.85        771795.       0.244223E+011   5224.85       0.537211E+007  0.247378E+007
  1201.28        771795.       0.246875E+011   5221.24       0.536470E+007  0.246505E+007
  1248.72        771795.       0.249535E+011   5217.61       0.535725E+007  0.245626E+007
  1296.15        771795.       0.252204E+011   5213.97       0.534977E+007  0.244744E+007
  1343.59        771795.       0.254879E+011   5210.30       0.534226E+007  0.243858E+007
  1391.03        771795.       0.257560E+011   5206.62       0.533473E+007  0.242969E+007
  1438.46        771795.       0.260247E+011   5202.93       0.532717E+007  0.242076E+007
  1485.90        771795.       0.262938E+011   5199.22       0.531959E+007  0.241181E+007
  1533.33        771795.       0.265634E+011   5195.50       0.531199E+007  0.240282E+007
  1580.77        771795.       0.268332E+011   5191.77       0.530437E+007  0.239381E+007
  1628.21        771795.       0.271034E+011   5188.02       0.529673E+007  0.238477E+007
  1675.64        771795.       0.273739E+011   5184.26       0.528907E+007  0.237570E+007
  1723.08        771795.       0.276446E+011   5180.49       0.528140E+007  0.236661E+007
  1770.51        771795.       0.279155E+011   5176.71       0.527371E+007  0.235750E+007
  1817.95        771795.       0.281866E+011   5172.92       0.526601E+007  0.234837E+007
  1865.38        771795.       0.284579E+011   5169.12       0.525829E+007  0.233922E+007
  1912.82        771795.       0.287292E+011   5165.30       0.525056E+007  0.233004E+007
  1960.26        771795.       0.290007E+011   5161.48       0.524282E+007  0.232085E+007
  2007.69        771795.       0.292723E+011   5157.65       0.523506E+007  0.231163E+007
  2055.13        771795.       0.295439E+011   5153.81       0.522729E+007  0.230240E+007
  2102.56        771795.       0.298156E+011   5149.96       0.521950E+007  0.229314E+007
  2150.00        771795.       0.300874E+011   5146.10       0.521171E+007  0.228387E+007
  300.000        789744.       0.220820E+011   5298.30       0.555231E+007  0.262903E+007
  347.436        789744.       0.222350E+011   5296.30       0.554812E+007  0.262412E+007
  394.872        789744.       0.224094E+011   5294.01       0.554334E+007  0.261851E+007
  442.308        789744.       0.226010E+011   5291.50       0.553809E+007  0.261236E+007
  489.744        789744.       0.228063E+011   5288.80       0.553245E+007  0.260576E+007
  537.179        789744.       0.230225E+011   5285.95       0.552651E+007  0.259879E+007
  584.615        789744.       0.232475E+011   5282.99       0.552032E+007  0.259154E+007
  632.051        789744.       0.234798E+011   5279.92       0.551393E+007  0.258405E+007
  679.487        789744.       0.237179E+011   5276.77       0.550737E+007  0.257636E+007
  726.923        789744.       0.239609E+011   5273.55       0.550067E+007  0.256849E+007
  774.359        789744.       0.242080E+011   5270.27       0.549384E+007  0.256049E+007
  821.795        789744.       0.244585E+011   5266.94       0.548692E+007  0.255237E+007
  869.231        789744.       0.247119E+011   5263.56       0.547991E+007  0.254414E+007
  916.667        789744.       0.249677E+011   5260.14       0.547282E+007  0.253581E+007
  964.103        789744.       0.252257E+011   5256.69       0.546567E+007  0.252741E+007
  1011.54        789744.       0.254855E+011   5253.21       0.545846E+007  0.251893E+007
  1058.97        789744.       0.257468E+011   5249.70       0.545119E+007  0.251039E+007
  1106.41        789744.       0.260094E+011   5246.17       0.544388E+007  0.250180E+007
  1153.85        789744.       0.262733E+011   5242.61       0.543653E+007  0.249315E+007
  1201.28        789744.       0.265381E+011   5239.03       0.542915E+007  0.248445E+007
  1248.72        789744.       0.268039E+011   5235.44       0.542173E+007  0.247571E+007
  1296.15        789744.       0.270704E+011   5231.82       0.541427E+007  0.246693E+007
  1343.59        789744.       0.273377E+011   5228.19       0.540679E+007  0.245812E+007
  1391.03        789744.       0.276055E+011   5224.54       0.539929E+007  0.244927E+007
  1438.46        789744.       0.278739E+011   5220.88       0.539176E+007  0.244038E+007
  1485.90        789744.       0.281427E+011   5217.20       0.538421E+007  0.243147E+007
  1533.33        789744.       0.284120E+011   5213.51       0.537663E+007  0.242252E+007
  1580.77        789744.       0.286816E+011   5209.81       0.536904E+007  0.241356E+007
  1628.21        789744.       0.289515E+011   5206.09       0.536143E+007  0.240456E+007
  1675.64        789744.       0.292217E+011   5202.37       0.535380E+007  0.239554E+007
  1723.08        789744.       0.294921E+011   5198.63       0.534616E+007  0.238650E+007
  1770.51        789744.       0.297628E+011   5194.88       0.533850E+007  0.237743E+007
  1817.95        789744.       0.300336E+011   5191.12       0.533083E+007  0.236834E+007
  1865.38        789744.       0.303045E+011   5187.35       0.532314E+007  0.235923E+007
  1912.82        789744.       0.305756E+011   5183.57       0.531544E+007  0.235010E+007
  1960.26        789744.       0.308469E+011   5179.78       0.530772E+007  0.234095E+007
  2007.69        789744.       0.311182E+011   5175.99       0.529999E+007  0.233178E+007
  2055.13        789744.       0.313895E+011   5172.18       0.529225E+007  0.232259E+007
  2102.56        789744.       0.316610E+011   5168.36       0.528450E+007  0.231339E+007
  2150.00        789744.       0.319324E+011   5164.53       0.527674E+007  0.230416E+007
  300.000        807692.       0.239472E+011   5315.41       0.561610E+007  0.264750E+007
  347.436        807692.       0.240994E+011   5313.43       0.561194E+007  0.264263E+007
  394.872        807692.       0.242731E+011   5311.17       0.560719E+007  0.263707E+007
  442.308        807692.       0.244640E+011   5308.68       0.560197E+007  0.263095E+007
  489.744        807692.       0.246686E+011   5306.01       0.559636E+007  0.262439E+007
  537.179        807692.       0.248842E+011   5303.19       0.559045E+007  0.261747E+007
  584.615        807692.       0.251087E+011   5300.25       0.558429E+007  0.261026E+007
  632.051        807692.       0.253404E+011   5297.21       0.557793E+007  0.260281E+007
  679.487        807692.       0.255781E+011   5294.09       0.557140E+007  0.259516E+007
  726.923        807692.       0.258207E+011   5290.89       0.556472E+007  0.258734E+007
  774.359        807692.       0.260673E+011   5287.64       0.555793E+007  0.257938E+007
  821.795        807692.       0.263174E+011   5284.34       0.555103E+007  0.257130E+007
  869.231        807692.       0.265704E+011   5280.99       0.554404E+007  0.256311E+007
  916.667        807692.       0.268259E+011   5277.60       0.553698E+007  0.255482E+007
  964.103        807692.       0.270835E+011   5274.18       0.552986E+007  0.254646E+007
  1011.54        807692.       0.273429E+011   5270.73       0.552267E+007  0.253803E+007
  1058.97        807692.       0.276039E+011   5267.25       0.551544E+007  0.252953E+007
  1106.41        807692.       0.278663E+011   5263.75       0.550815E+007  0.252097E+007
  1153.85        807692.       0.281298E+011   5260.22       0.550083E+007  0.251237E+007
  1201.28        807692.       0.283944E+011   5256.67       0.549347E+007  0.250371E+007
  1248.72        807692.       0.286598E+011   5253.10       0.548608E+007  0.249501E+007
  1296.15        807692.       0.289261E+011   5249.52       0.547865E+007  0.248627E+007
  1343.59        807692.       0.291930E+011   5245.92       0.547120E+007  0.247750E+007
  1391.03        807692.       0.294606E+011   5242.30       0.546372E+007  0.246869E+007
  1438.46        807692.       0.297287E+011   5238.67       0.545622E+007  0.245985E+007
  1485.90        807692.       0.299972E+011   5235.02       0.544869E+007  0.245098E+007
  1533.33        807692.       0.302662E+011   5231.36       0.544115E+007  0.244208E+007
  1580.77        807692.       0.305356E+011   5227.69       0.543357E+007  0.243315E+007
  1628.21        807692.       0.308052E+011   5224.01       0.542600E+007  0.242420E+007
  1675.64        807692.       0.310751E+011   5220.31       0.541840E+007  0.241522E+007
  1723.08        807692.       0.313453E+011   5216.60       0.541078E+007  0.240622E+007
  1770.51        807692.       0.316157E+011   5212.89       0.540315E+007  0.239719E+007
  1817.95        807692.       0.318862E+011   5209.16       0.539551E+007  0.238815E+007
  1865.38        807692.       0.321570E+011   5205.42       0.538785E+007  0.237908E+007
  1912.82        807692.       0.324278E+011   5201.68       0.538017E+007  0.237000E+007
  1960.26        807692.       0.326988E+011   5197.92       0.537248E+007  0.236089E+007
  2007.69        807692.       0.329698E+011   5194.15       0.536479E+007  0.235177E+007
  2055.13        807692.       0.332409E+011   5190.38       0.535707E+007  0.234262E+007
  2102.56        807692.       0.335121E+011   5186.59       0.534936E+007  0.233346E+007
  2150.00        807692.       0.337833E+011   5182.80       0.534162E+007  0.232428E+007
  300.000        825641.       0.258175E+011   5332.37       0.567978E+007  0.266584E+007
  347.436        825641.       0.259689E+011   5330.42       0.567565E+007  0.266101E+007
  394.872        825641.       0.261419E+011   5328.18       0.567093E+007  0.265549E+007
  442.308        825641.       0.263321E+011   5325.72       0.566574E+007  0.264942E+007
  489.744        825641.       0.265361E+011   5323.07       0.566016E+007  0.264290E+007
  537.179        825641.       0.267512E+011   5320.28       0.565428E+007  0.263602E+007
  584.615        825641.       0.269751E+011   5317.37       0.564815E+007  0.262885E+007
  632.051        825641.       0.272064E+011   5314.36       0.564181E+007  0.262144E+007
  679.487        825641.       0.274436E+011   5311.26       0.563531E+007  0.261383E+007
  726.923        825641.       0.276857E+011   5308.10       0.562866E+007  0.260605E+007
  774.359        825641.       0.279320E+011   5304.87       0.562189E+007  0.259813E+007
  821.795        825641.       0.281817E+011   5301.60       0.561502E+007  0.259009E+007
  869.231        825641.       0.284343E+011   5298.28       0.560806E+007  0.258194E+007
  916.667        825641.       0.286894E+011   5294.92       0.560103E+007  0.257370E+007
  964.103        825641.       0.289467E+011   5291.52       0.559393E+007  0.256537E+007
  1011.54        825641.       0.292058E+011   5288.10       0.558677E+007  0.255698E+007
  1058.97        825641.       0.294665E+011   5284.65       0.557956E+007  0.254852E+007
  1106.41        825641.       0.297285E+011   5281.17       0.557230E+007  0.254001E+007
  1153.85        825641.       0.299918E+011   5277.67       0.556501E+007  0.253144E+007
  1201.28        825641.       0.302560E+011   5274.15       0.555767E+007  0.252282E+007
  1248.72        825641.       0.305212E+011   5270.62       0.555030E+007  0.251417E+007
  1296.15        825641.       0.307872E+011   5267.06       0.554290E+007  0.250547E+007
  1343.59        825641.       0.310539E+011   5263.49       0.553548E+007  0.249673E+007
  1391.03        825641.       0.313211E+011   5259.90       0.552803E+007  0.248797E+007
  1438.46        825641.       0.315890E+011   5256.30       0.552055E+007  0.247916E+007
  1485.90        825641.       0.318573E+011   5252.68       0.551305E+007  0.247033E+007
  1533.33        825641.       0.321260E+011   5249.05       0.550553E+007  0.246148E+007
  1580.77        825641.       0.323951E+011   5245.41       0.549799E+007  0.245259E+007
  1628.21        825641.       0.326645E+011   5241.76       0.549044E+007  0.244368E+007
  1675.64        825641.       0.329342E+011   5238.09       0.548286E+007  0.243474E+007
  1723.08        825641.       0.332041E+011   5234.42       0.547528E+007  0.242578E+007
  1770.51        825641.       0.334742E+011   5230.73       0.546767E+007  0.241680E+007
  1817.95        825641.       0.337445E+011   5227.04       0.546005E+007  0.240780E+007
  1865.38        825641.       0.340150E+011   5223.33       0.545240E+007  0.239878E+007
  1912.82        825641.       0.342856E+011   5219.61       0.544477E+007  0.238973E+007
  1960.26        825641.       0.345563E+011   5215.89       0.543711E+007  0.238067E+007
  2007.69        825641.       0.348271E+011   5212.15       0.542944E+007  0.237159E+007
  2055.13        825641.       0.350980E+011   5208.41       0.542176E+007  0.236249E+007
  2102.56        825641.       0.353690E+011   5204.66       0.541406E+007  0.235337E+007
  2150.00        825641.       0.356399E+011   5200.90       0.540635E+007  0.234424E+007
  300.000        843590.       0.276929E+011   5349.20       0.574334E+007  0.268405E+007
  347.436        843590.       0.278436E+011   5347.27       0.573925E+007  0.267926E+007
  394.872        843590.       0.280158E+011   5345.06       0.573456E+007  0.267378E+007
  442.308        843590.       0.282054E+011   5342.62       0.572939E+007  0.266775E+007
  489.744        843590.       0.284088E+011   5340.00       0.572385E+007  0.266127E+007
  537.179        843590.       0.286233E+011   5337.23       0.571799E+007  0.265444E+007
  584.615        843590.       0.288467E+011   5334.35       0.571189E+007  0.264731E+007
  632.051        843590.       0.290775E+011   5331.36       0.570558E+007  0.263994E+007
  679.487        843590.       0.293142E+011   5328.29       0.569910E+007  0.263237E+007
  726.923        843590.       0.295559E+011   5325.15       0.569248E+007  0.262463E+007
  774.359        843590.       0.298018E+011   5321.96       0.568574E+007  0.261675E+007
  821.795        843590.       0.300511E+011   5318.71       0.567890E+007  0.260874E+007
  869.231        843590.       0.303034E+011   5315.42       0.567196E+007  0.260063E+007
  916.667        843590.       0.305582E+011   5312.09       0.566495E+007  0.259243E+007
  964.103        843590.       0.308152E+011   5308.72       0.565788E+007  0.258415E+007
  1011.54        843590.       0.310739E+011   5305.32       0.565075E+007  0.257579E+007
  1058.97        843590.       0.313343E+011   5301.90       0.564356E+007  0.256737E+007
  1106.41        843590.       0.315961E+011   5298.45       0.563633E+007  0.255890E+007
  1153.85        843590.       0.318590E+011   5294.98       0.562906E+007  0.255037E+007
  1201.28        843590.       0.321230E+011   5291.49       0.562175E+007  0.254179E+007
  1248.72        843590.       0.323879E+011   5287.98       0.561441E+007  0.253318E+007
  1296.15        843590.       0.326536E+011   5284.45       0.560703E+007  0.252452E+007
  1343.59        843590.       0.329200E+011   5280.91       0.559963E+007  0.251582E+007
  1391.03        843590.       0.331871E+011   5277.35       0.559221E+007  0.250710E+007
  1438.46        843590.       0.334547E+011   5273.78       0.558476E+007  0.249833E+007
  1485.90        843590.       0.337227E+011   5270.19       0.557728E+007  0.248954E+007
  1533.33        843590.       0.339912E+011   5266.59       0.556979E+007  0.248073E+007
  1580.77        843590.       0.342600E+011   5262.98       0.556228E+007  0.247188E+007
  1628.21        843590.       0.345292E+011   5259.36       0.555475E+007  0.246301E+007
  1675.64        843590.       0.347986E+011   5255.72       0.554720E+007  0.245412E+007
  1723.08        843590.       0.350683E+011   5252.08       0.553964E+007  0.244520E+007
  1770.51        843590.       0.353382E+011   5248.42       0.553206E+007  0.243626E+007
  1817.95        843590.       0.356083E+011   5244.75       0.552447E+007  0.242730E+007
  1865.38        843590.       0.358785E+011   5241.08       0.551686E+007  0.241832E+007
  1912.82        843590.       0.361489E+011   5237.39       0.550924E+007  0.240932E+007
  1960.26        843590.       0.364194E+011   5233.70       0.550161E+007  0.240030E+007
  2007.69        843590.       0.366900E+011   5229.99       0.549396E+007  0.239126E+007
  2055.13        843590.       0.369607E+011   5226.28       0.548631E+007  0.238220E+007
  2102.56        843590.       0.372314E+011   5222.56       0.547864E+007  0.237312E+007
  2150.00        843590.       0.375021E+011   5218.83       0.547096E+007  0.236403E+007
  300.000        861538.       0.295732E+011   5365.90       0.580681E+007  0.270214E+007
  347.436        861538.       0.297232E+011   5363.99       0.580274E+007  0.269738E+007
  394.872        861538.       0.298948E+011   5361.80       0.579808E+007  0.269194E+007
  442.308        861538.       0.300837E+011   5359.38       0.579294E+007  0.268595E+007
  489.744        861538.       0.302865E+011   5356.79       0.578742E+007  0.267952E+007
  537.179        861538.       0.305004E+011   5354.05       0.578160E+007  0.267272E+007
  584.615        861538.       0.307233E+011   5351.19       0.577552E+007  0.266563E+007
  632.051        861538.       0.309536E+011   5348.23       0.576924E+007  0.265830E+007
  679.487        861538.       0.311899E+011   5345.19       0.576279E+007  0.265077E+007
  726.923        861538.       0.314313E+011   5342.07       0.575619E+007  0.264307E+007
  774.359        861538.       0.316767E+011   5338.90       0.574948E+007  0.263523E+007
  821.795        861538.       0.319257E+011   5335.68       0.574266E+007  0.262726E+007
  869.231        861538.       0.321777E+011   5332.42       0.573575E+007  0.261919E+007
  916.667        861538.       0.324321E+011   5329.11       0.572877E+007  0.261103E+007
  964.103        861538.       0.326888E+011   5325.77       0.572172E+007  0.260278E+007
  1011.54        861538.       0.329472E+011   5322.40       0.571461E+007  0.259447E+007
  1058.97        861538.       0.332073E+011   5319.01       0.570745E+007  0.258609E+007
  1106.41        861538.       0.334688E+011   5315.59       0.570024E+007  0.257765E+007
  1153.85        861538.       0.337315E+011   5312.15       0.569300E+007  0.256916E+007
  1201.28        861538.       0.339952E+011   5308.68       0.568571E+007  0.256062E+007
  1248.72        861538.       0.342598E+011   5305.20       0.567839E+007  0.255204E+007
  1296.15        861538.       0.345253E+011   5301.70       0.567104E+007  0.254343E+007
  1343.59        861538.       0.347915E+011   5298.18       0.566367E+007  0.253477E+007
  1391.03        861538.       0.350583E+011   5294.65       0.565627E+007  0.252608E+007
  1438.46        861538.       0.353256E+011   5291.11       0.564884E+007  0.251736E+007
  1485.90        861538.       0.355934E+011   5287.55       0.564139E+007  0.250861E+007
  1533.33        861538.       0.358617E+011   5283.98       0.563392E+007  0.249983E+007
  1580.77        861538.       0.361303E+011   5280.40       0.562644E+007  0.249103E+007
  1628.21        861538.       0.363992E+011   5276.80       0.561893E+007  0.248219E+007
  1675.64        861538.       0.366684E+011   5273.20       0.561141E+007  0.247334E+007
  1723.08        861538.       0.369379E+011   5269.58       0.560387E+007  0.246446E+007
  1770.51        861538.       0.372076E+011   5265.95       0.559632E+007  0.245556E+007
  1817.95        861538.       0.374775E+011   5262.32       0.558875E+007  0.244664E+007
  1865.38        861538.       0.377475E+011   5258.67       0.558117E+007  0.243770E+007
  1912.82        861538.       0.380177E+011   5255.01       0.557358E+007  0.242874E+007
  1960.26        861538.       0.382879E+011   5251.35       0.556597E+007  0.241977E+007
  2007.69        861538.       0.385583E+011   5247.68       0.555836E+007  0.241077E+007
  2055.13        861538.       0.388287E+011   5243.99       0.555073E+007  0.240175E+007
  2102.56        861538.       0.390992E+011   5240.30       0.554309E+007  0.239272E+007
  2150.00        861538.       0.393698E+011   5236.60       0.553543E+007  0.238367E+007
  300.000        879487.       0.314585E+011   5382.46       0.587016E+007  0.272010E+007
  347.436        879487.       0.316077E+011   5380.57       0.586612E+007  0.271538E+007
  394.872        879487.       0.317786E+011   5378.41       0.586149E+007  0.270998E+007
  442.308        879487.       0.319669E+011   5376.02       0.585638E+007  0.270403E+007
  489.744        879487.       0.321691E+011   5373.45       0.585089E+007  0.269763E+007
  537.179        879487.       0.323825E+011   5370.73       0.584510E+007  0.269088E+007
  584.615        879487.       0.326049E+011   5367.90       0.583905E+007  0.268383E+007
  632.051        879487.       0.328348E+011   5364.96       0.583279E+007  0.267654E+007
  679.487        879487.       0.330707E+011   5361.94       0.582636E+007  0.266904E+007
  726.923        879487.       0.333116E+011   5358.86       0.581979E+007  0.266138E+007
  774.359        879487.       0.335567E+011   5355.71       0.581310E+007  0.265358E+007
  821.795        879487.       0.338053E+011   5352.52       0.580631E+007  0.264565E+007
  869.231        879487.       0.340569E+011   5349.28       0.579943E+007  0.263762E+007
  916.667        879487.       0.343111E+011   5346.00       0.579247E+007  0.262949E+007
  964.103        879487.       0.345674E+011   5342.69       0.578544E+007  0.262129E+007
  1011.54        879487.       0.348256E+011   5339.35       0.577836E+007  0.261301E+007
  1058.97        879487.       0.350854E+011   5335.98       0.577122E+007  0.260467E+007
  1106.41        879487.       0.353466E+011   5332.58       0.576404E+007  0.259627E+007
  1153.85        879487.       0.356090E+011   5329.17       0.575682E+007  0.258781E+007
  1201.28        879487.       0.358725E+011   5325.73       0.574956E+007  0.257932E+007
  1248.72        879487.       0.361369E+011   5322.28       0.574226E+007  0.257078E+007
  1296.15        879487.       0.364021E+011   5318.80       0.573494E+007  0.256219E+007
  1343.59        879487.       0.366681E+011   5315.32       0.572758E+007  0.255358E+007
  1391.03        879487.       0.369346E+011   5311.81       0.572021E+007  0.254493E+007
  1438.46        879487.       0.372017E+011   5308.30       0.571281E+007  0.253624E+007
  1485.90        879487.       0.374693E+011   5304.76       0.570538E+007  0.252753E+007
  1533.33        879487.       0.377374E+011   5301.22       0.569794E+007  0.251879E+007
  1580.77        879487.       0.380057E+011   5297.67       0.569048E+007  0.251003E+007
  1628.21        879487.       0.382745E+011   5294.10       0.568300E+007  0.250123E+007
  1675.64        879487.       0.385435E+011   5290.52       0.567550E+007  0.249242E+007
  1723.08        879487.       0.388127E+011   5286.93       0.566799E+007  0.248358E+007
  1770.51        879487.       0.390822E+011   5283.34       0.566046E+007  0.247472E+007
  1817.95        879487.       0.393519E+011   5279.73       0.565294E+007  0.246584E+007
  1865.38        879487.       0.396217E+011   5276.11       0.564536E+007  0.245694E+007
  1912.82        879487.       0.398917E+011   5272.48       0.563779E+007  0.244802E+007
  1960.26        879487.       0.401617E+011   5268.85       0.563024E+007  0.243908E+007
  2007.69        879487.       0.404319E+011   5265.20       0.562262E+007  0.243013E+007
  2055.13        879487.       0.407022E+011   5261.55       0.561502E+007  0.242115E+007
  2102.56        879487.       0.409725E+011   5257.89       0.560740E+007  0.241216E+007
  2150.00        879487.       0.412428E+011   5254.22       0.559978E+007  0.240315E+007
  300.000        897436.       0.333485E+011   5398.90       0.593342E+007  0.273794E+007
  347.436        897436.       0.334971E+011   5397.03       0.592940E+007  0.273326E+007
  394.872        897436.       0.336673E+011   5394.89       0.592480E+007  0.272790E+007
  442.308        897436.       0.338549E+011   5392.52       0.591972E+007  0.272199E+007
  489.744        897436.       0.340566E+011   5389.98       0.591426E+007  0.271563E+007
  537.179        897436.       0.342694E+011   5387.28       0.590849E+007  0.270891E+007
  584.615        897436.       0.344914E+011   5384.47       0.590246E+007  0.270190E+007
  632.051        897436.       0.347208E+011   5381.56       0.589623E+007  0.269465E+007
  679.487        897436.       0.349563E+011   5378.57       0.588983E+007  0.268719E+007
  726.923        897436.       0.351968E+011   5375.51       0.588329E+007  0.267957E+007
  774.359        897436.       0.354416E+011   5372.39       0.587662E+007  0.267180E+007
  821.795        897436.       0.356898E+011   5369.22       0.586985E+007  0.266391E+007
  869.231        897436.       0.359411E+011   5366.01       0.586299E+007  0.265591E+007
  916.667        897436.       0.361950E+011   5362.75       0.585606E+007  0.264783E+007
  964.103        897436.       0.364510E+011   5359.47       0.584905E+007  0.263966E+007
  1011.54        897436.       0.367089E+011   5356.15       0.584199E+007  0.263142E+007
  1058.97        897436.       0.369685E+011   5352.81       0.583488E+007  0.262311E+007
  1106.41        897436.       0.372294E+011   5349.44       0.582772E+007  0.261475E+007
  1153.85        897436.       0.374916E+011   5346.05       0.582052E+007  0.260633E+007
  1201.28        897436.       0.377548E+011   5342.64       0.581329E+007  0.259787E+007
  1248.72        897436.       0.380190E+011   5339.21       0.580602E+007  0.258937E+007
  1296.15        897436.       0.382840E+011   5335.77       0.579872E+007  0.258083E+007
  1343.59        897436.       0.385497E+011   5332.31       0.579139E+007  0.257225E+007
  1391.03        897436.       0.388160E+011   5328.83       0.578403E+007  0.256363E+007
  1438.46        897436.       0.390829E+011   5325.34       0.577665E+007  0.255499E+007
  1485.90        897436.       0.393503E+011   5321.84       0.576926E+007  0.254632E+007
  1533.33        897436.       0.396181E+011   5318.32       0.576184E+007  0.253761E+007
  1580.77        897436.       0.398863E+011   5314.79       0.575440E+007  0.252889E+007
  1628.21        897436.       0.401548E+011   5311.25       0.574694E+007  0.252013E+007
  1675.64        897436.       0.404237E+011   5307.70       0.573947E+007  0.251136E+007
  1723.08        897436.       0.406927E+011   5304.14       0.573198E+007  0.250256E+007
  1770.51        897436.       0.409620E+011   5300.57       0.572448E+007  0.249374E+007
  1817.95        897436.       0.412315E+011   5296.99       0.571696E+007  0.248490E+007
  1865.38        897436.       0.415011E+011   5293.40       0.570943E+007  0.247603E+007
  1912.82        897436.       0.417709E+011   5289.80       0.570188E+007  0.246715E+007
  1960.26        897436.       0.420408E+011   5286.20       0.569433E+007  0.245825E+007
  2007.69        897436.       0.423108E+011   5282.58       0.568675E+007  0.244934E+007
  2055.13        897436.       0.425808E+011   5278.96       0.567918E+007  0.244040E+007
  2102.56        897436.       0.428509E+011   5275.33       0.567159E+007  0.243145E+007
  2150.00        897436.       0.431211E+011   5271.68       0.566399E+007  0.242248E+007
  300.000        915385.       0.352433E+011   5415.21       0.599657E+007  0.275566E+007
  347.436        915385.       0.353911E+011   5413.36       0.599259E+007  0.275102E+007
  394.872        915385.       0.355607E+011   5411.24       0.598801E+007  0.274570E+007
  442.308        915385.       0.357477E+011   5408.90       0.598296E+007  0.273982E+007
  489.744        915385.       0.359488E+011   5406.38       0.597752E+007  0.273350E+007
  537.179        915385.       0.361612E+011   5403.71       0.597178E+007  0.272682E+007
  584.615        915385.       0.363827E+011   5400.92       0.596578E+007  0.271985E+007
  632.051        915385.       0.366116E+011   5398.03       0.595957E+007  0.271263E+007
  679.487        915385.       0.368467E+011   5395.07       0.595320E+007  0.270521E+007
  726.923        915385.       0.370869E+011   5392.03       0.594667E+007  0.269763E+007
  774.359        915385.       0.373313E+011   5388.94       0.594003E+007  0.268990E+007
  821.795        915385.       0.375792E+011   5385.79       0.593329E+007  0.268204E+007
  869.231        915385.       0.378302E+011   5382.60       0.592645E+007  0.267408E+007
  916.667        915385.       0.380837E+011   5379.37       0.591954E+007  0.266603E+007
  964.103        915385.       0.383395E+011   5376.11       0.591256E+007  0.265790E+007
  1011.54        915385.       0.385971E+011   5372.82       0.590552E+007  0.264969E+007
  1058.97        915385.       0.388564E+011   5369.50       0.589843E+007  0.264143E+007
  1106.41        915385.       0.391171E+011   5366.16       0.589130E+007  0.263310E+007
  1153.85        915385.       0.393790E+011   5362.80       0.588412E+007  0.262472E+007
  1201.28        915385.       0.396421E+011   5359.41       0.587691E+007  0.261630E+007
  1248.72        915385.       0.399060E+011   5356.01       0.586966E+007  0.260783E+007
  1296.15        915385.       0.401708E+011   5352.59       0.586238E+007  0.259933E+007
  1343.59        915385.       0.404363E+011   5349.16       0.585508E+007  0.259078E+007
  1391.03        915385.       0.407024E+011   5345.71       0.584774E+007  0.258221E+007
  1438.46        915385.       0.409691E+011   5342.24       0.584039E+007  0.257360E+007
  1485.90        915385.       0.412363E+011   5338.77       0.583301E+007  0.256496E+007
  1533.33        915385.       0.415039E+011   5335.28       0.582562E+007  0.255630E+007
  1580.77        915385.       0.417719E+011   5331.78       0.581820E+007  0.254761E+007
  1628.21        915385.       0.420402E+011   5328.26       0.581077E+007  0.253889E+007
  1675.64        915385.       0.423089E+011   5324.74       0.580332E+007  0.253015E+007
  1723.08        915385.       0.425777E+011   5321.21       0.579585E+007  0.252139E+007
  1770.51        915385.       0.428468E+011   5317.67       0.578837E+007  0.251261E+007
  1817.95        915385.       0.431161E+011   5314.11       0.578088E+007  0.250381E+007
  1865.38        915385.       0.433856E+011   5310.55       0.577337E+007  0.249498E+007
  1912.82        915385.       0.436552E+011   5306.98       0.576585E+007  0.248614E+007
  1960.26        915385.       0.439249E+011   5303.40       0.575832E+007  0.247728E+007
  2007.69        915385.       0.441947E+011   5299.81       0.575078E+007  0.246840E+007
  2055.13        915385.       0.444646E+011   5296.22       0.574322E+007  0.245951E+007
  2102.56        915385.       0.447345E+011   5292.61       0.573566E+007  0.245060E+007
  2150.00        915385.       0.450045E+011   5289.00       0.572808E+007  0.244167E+007
  300.000        933333.       0.372466E+011   5448.40       0.599741E+007  0.279111E+007
  347.436        933333.       0.372898E+011   5429.57       0.605567E+007  0.276866E+007
  394.872        933333.       0.374587E+011   5427.47       0.605112E+007  0.276337E+007
  442.308        933333.       0.376452E+011   5425.15       0.604609E+007  0.275753E+007
  489.744        933333.       0.378457E+011   5422.65       0.604068E+007  0.275125E+007
  537.179        933333.       0.380576E+011   5420.01       0.603496E+007  0.274461E+007
  584.615        933333.       0.382786E+011   5417.24       0.602899E+007  0.273767E+007
  632.051        933333.       0.385071E+011   5414.38       0.602281E+007  0.273049E+007
  679.487        933333.       0.387418E+011   5411.44       0.601646E+007  0.272311E+007
  726.923        933333.       0.389816E+011   5408.43       0.600996E+007  0.271556E+007
  774.359        933333.       0.392257E+011   5405.35       0.600334E+007  0.270787E+007
  821.795        933333.       0.394733E+011   5402.23       0.599662E+007  0.270005E+007
  869.231        933333.       0.397240E+011   5399.07       0.598980E+007  0.269213E+007
  916.667        933333.       0.399773E+011   5395.87       0.598292E+007  0.268411E+007
  964.103        933333.       0.402328E+011   5392.63       0.597596E+007  0.267601E+007
  1011.54        933333.       0.404901E+011   5389.36       0.596894E+007  0.266785E+007
  1058.97        933333.       0.407492E+011   5386.07       0.596188E+007  0.265961E+007
  1106.41        933333.       0.410096E+011   5382.75       0.595476E+007  0.265132E+007
  1153.85        933333.       0.412713E+011   5379.41       0.594761E+007  0.264298E+007
  1201.28        933333.       0.415341E+011   5376.06       0.594042E+007  0.263459E+007
  1248.72        933333.       0.417979E+011   5372.68       0.593319E+007  0.262616E+007
  1296.15        933333.       0.420624E+011   5369.28       0.592594E+007  0.261769E+007
  1343.59        933333.       0.423277E+011   5365.87       0.591865E+007  0.260918E+007
  1391.03        933333.       0.425937E+011   5362.45       0.591135E+007  0.260064E+007
  1438.46        933333.       0.428602E+011   5359.01       0.590401E+007  0.259207E+007
  1485.90        933333.       0.431272E+011   5355.56       0.589666E+007  0.258347E+007
  1533.33        933333.       0.433946E+011   5352.10       0.588928E+007  0.257484E+007
  1580.77        933333.       0.436624E+011   5348.62       0.588189E+007  0.256619E+007
  1628.21        933333.       0.439306E+011   5345.14       0.587448E+007  0.255751E+007
  1675.64        933333.       0.441990E+011   5341.64       0.586706E+007  0.254881E+007
  1723.08        933333.       0.444677E+011   5338.13       0.585961E+007  0.254009E+007
  1770.51        933333.       0.447366E+011   5334.62       0.585216E+007  0.253134E+007
  1817.95        933333.       0.450058E+011   5331.09       0.584469E+007  0.252258E+007
  1865.38        933333.       0.452750E+011   5327.56       0.583720E+007  0.251379E+007
  1912.82        933333.       0.455445E+011   5324.01       0.582969E+007  0.250499E+007
  1960.26        933333.       0.458140E+011   5320.46       0.582220E+007  0.249616E+007
  2007.69        933333.       0.460837E+011   5316.90       0.581468E+007  0.248732E+007
  2055.13        933333.       0.463534E+011   5313.33       0.580715E+007  0.247847E+007
  2102.56        933333.       0.466232E+011   5309.75       0.579960E+007  0.246959E+007
  2150.00        933333.       0.468930E+011   5306.17       0.579205E+007  0.246070E+007
  300.000        951282.       0.393295E+011   5493.72       0.595570E+007  0.284340E+007
  347.436        951282.       0.394193E+011   5482.86       0.598344E+007  0.282856E+007
  394.872        951282.       0.395174E+011   5469.37       0.601954E+007  0.281039E+007
  442.308        951282.       0.396131E+011   5452.20       0.606864E+007  0.278766E+007
  489.744        951282.       0.397472E+011   5438.80       0.610375E+007  0.276888E+007
  537.179        951282.       0.399586E+011   5436.18       0.609805E+007  0.276228E+007
  584.615        951282.       0.401792E+011   5433.44       0.609210E+007  0.275538E+007
  632.051        951282.       0.404073E+011   5430.60       0.608595E+007  0.274823E+007
  679.487        951282.       0.406416E+011   5427.68       0.607962E+007  0.274089E+007
  726.923        951282.       0.408810E+011   5424.69       0.607314E+007  0.273338E+007
  774.359        951282.       0.411248E+011   5421.65       0.606655E+007  0.272572E+007
  821.795        951282.       0.413721E+011   5418.55       0.605985E+007  0.271794E+007
  869.231        951282.       0.416225E+011   5415.41       0.605306E+007  0.271005E+007
  916.667        951282.       0.418755E+011   5412.23       0.604619E+007  0.270207E+007
  964.103        951282.       0.421307E+011   5409.02       0.603926E+007  0.269400E+007
  1011.54        951282.       0.423878E+011   5405.78       0.603226E+007  0.268587E+007
  1058.97        951282.       0.426466E+011   5402.51       0.602522E+007  0.267767E+007
  1106.41        951282.       0.429069E+011   5399.22       0.601813E+007  0.266942E+007
  1153.85        951282.       0.431684E+011   5395.90       0.601099E+007  0.266111E+007
  1201.28        951282.       0.434309E+011   5392.57       0.600382E+007  0.265276E+007
  1248.72        951282.       0.436945E+011   5389.21       0.599662E+007  0.264436E+007
  1296.15        951282.       0.439588E+011   5385.84       0.598939E+007  0.263593E+007
  1343.59        951282.       0.442239E+011   5382.46       0.598212E+007  0.262746E+007
  1391.03        951282.       0.444897E+011   5379.06       0.597484E+007  0.261895E+007
  1438.46        951282.       0.447560E+011   5375.65       0.596753E+007  0.261042E+007
  1485.90        951282.       0.450228E+011   5372.22       0.596020E+007  0.260185E+007
  1533.33        951282.       0.452901E+011   5368.78       0.595284E+007  0.259326E+007
  1580.77        951282.       0.455577E+011   5365.33       0.594547E+007  0.258464E+007
  1628.21        951282.       0.458257E+011   5361.87       0.593808E+007  0.257600E+007
  1675.64        951282.       0.460940E+011   5358.40       0.593068E+007  0.256733E+007
  1723.08        951282.       0.463625E+011   5354.92       0.592326E+007  0.255865E+007
  1770.51        951282.       0.466313E+011   5351.43       0.591583E+007  0.254994E+007
  1817.95        951282.       0.469003E+011   5347.93       0.590838E+007  0.254121E+007
  1865.38        951282.       0.471694E+011   5344.42       0.590092E+007  0.253246E+007
  1912.82        951282.       0.474386E+011   5340.91       0.589344E+007  0.252369E+007
  1960.26        951282.       0.477080E+011   5337.38       0.588596E+007  0.251491E+007
  2007.69        951282.       0.479775E+011   5333.85       0.587846E+007  0.250611E+007
  2055.13        951282.       0.482471E+011   5330.31       0.587095E+007  0.249729E+007
  2102.56        951282.       0.485167E+011   5326.76       0.586344E+007  0.248845E+007
  2150.00        951282.       0.487864E+011   5323.20       0.585591E+007  0.247960E+007
  300.000        969231.       0.413088E+011   5521.20       0.597870E+007  0.287833E+007
  347.436        969231.       0.414189E+011   5513.89       0.599341E+007  0.286716E+007
  394.872        969231.       0.415456E+011   5505.32       0.601115E+007  0.285418E+007
  442.308        969231.       0.416831E+011   5495.25       0.603324E+007  0.283910E+007
  489.744        969231.       0.418251E+011   5483.30       0.606155E+007  0.282146E+007
  537.179        969231.       0.419645E+011   5468.86       0.609893E+007  0.280043E+007
  584.615        969231.       0.420925E+011   5450.89       0.614994E+007  0.277467E+007
  632.051        969231.       0.423120E+011   5446.70       0.614898E+007  0.276586E+007
  679.487        969231.       0.425459E+011   5443.81       0.614268E+007  0.275855E+007
  726.923        969231.       0.427850E+011   5440.84       0.613623E+007  0.275107E+007
  774.359        969231.       0.430284E+011   5437.82       0.612965E+007  0.274345E+007
  821.795        969231.       0.432754E+011   5434.74       0.612297E+007  0.273570E+007
  869.231        969231.       0.435256E+011   5431.63       0.611621E+007  0.272785E+007
  916.667        969231.       0.437783E+011   5428.47       0.610936E+007  0.271990E+007
  964.103        969231.       0.440333E+011   5425.28       0.610245E+007  0.271187E+007
  1011.54        969231.       0.442902E+011   5422.06       0.609548E+007  0.270377E+007
  1058.97        969231.       0.445487E+011   5418.82       0.608845E+007  0.269561E+007
  1106.41        969231.       0.448087E+011   5415.55       0.608138E+007  0.268739E+007
  1153.85        969231.       0.450700E+011   5412.26       0.607427E+007  0.267912E+007
  1201.28        969231.       0.453324E+011   5408.95       0.606712E+007  0.267080E+007
  1248.72        969231.       0.455957E+011   5405.62       0.605994E+007  0.266244E+007
  1296.15        969231.       0.458599E+011   5402.28       0.605273E+007  0.265404E+007
  1343.59        969231.       0.461248E+011   5398.92       0.604549E+007  0.264560E+007
  1391.03        969231.       0.463904E+011   5395.54       0.603822E+007  0.263713E+007
  1438.46        969231.       0.466565E+011   5392.15       0.603093E+007  0.262863E+007
  1485.90        969231.       0.469232E+011   5388.75       0.602362E+007  0.262010E+007
  1533.33        969231.       0.471903E+011   5385.34       0.601629E+007  0.261154E+007
  1580.77        969231.       0.474578E+011   5381.91       0.600894E+007  0.260296E+007
  1628.21        969231.       0.477256E+011   5378.48       0.600158E+007  0.259435E+007
  1675.64        969231.       0.479937E+011   5375.03       0.599419E+007  0.258572E+007
  1723.08        969231.       0.482621E+011   5371.58       0.598680E+007  0.257707E+007
  1770.51        969231.       0.485307E+011   5368.11       0.597938E+007  0.256840E+007
  1817.95        969231.       0.487995E+011   5364.64       0.597196E+007  0.255971E+007
  1865.38        969231.       0.490685E+011   5361.16       0.596452E+007  0.255099E+007
  1912.82        969231.       0.493376E+011   5357.67       0.595707E+007  0.254226E+007
  1960.26        969231.       0.496069E+011   5354.17       0.594960E+007  0.253352E+007
  2007.69        969231.       0.498762E+011   5350.66       0.594213E+007  0.252475E+007
  2055.13        969231.       0.501456E+011   5347.14       0.593464E+007  0.251597E+007
  2102.56        969231.       0.504151E+011   5343.62       0.592715E+007  0.250717E+007
  2150.00        969231.       0.506847E+011   5340.09       0.591964E+007  0.249835E+007
  300.000        987179.       0.432615E+011   5543.44       0.602001E+007  0.290783E+007
  347.436        987179.       0.433806E+011   5537.79       0.602880E+007  0.289843E+007
  394.872        987179.       0.435192E+011   5531.31       0.603890E+007  0.288771E+007
  442.308        987179.       0.436723E+011   5523.96       0.605090E+007  0.287563E+007
  489.744        987179.       0.438355E+011   5515.63       0.606555E+007  0.286208E+007
  537.179        987179.       0.440042E+011   5506.14       0.608387E+007  0.284684E+007
  584.615        987179.       0.441743E+011   5495.19       0.610726E+007  0.282949E+007
  632.051        987179.       0.443409E+011   5482.35       0.613774E+007  0.280942E+007
  679.487        987179.       0.444984E+011   5466.96       0.617832E+007  0.278565E+007
  726.923        987179.       0.446934E+011   5456.87       0.619921E+007  0.276864E+007
  774.359        987179.       0.449365E+011   5453.87       0.619266E+007  0.276106E+007
  821.795        987179.       0.451833E+011   5450.82       0.618600E+007  0.275334E+007
  869.231        987179.       0.454331E+011   5447.72       0.617926E+007  0.274552E+007
  916.667        987179.       0.456856E+011   5444.59       0.617243E+007  0.273761E+007
  964.103        987179.       0.459403E+011   5441.42       0.616554E+007  0.272962E+007
  1011.54        987179.       0.461970E+011   5438.23       0.615859E+007  0.272155E+007
  1058.97        987179.       0.464554E+011   5435.01       0.615159E+007  0.271342E+007
  1106.41        987179.       0.467152E+011   5431.76       0.614454E+007  0.270524E+007
  1153.85        987179.       0.469762E+011   5428.49       0.613745E+007  0.269700E+007
  1201.28        987179.       0.472384E+011   5425.21       0.613032E+007  0.268872E+007
  1248.72        987179.       0.475016E+011   5421.90       0.612316E+007  0.268039E+007
  1296.15        987179.       0.477656E+011   5418.58       0.611597E+007  0.267202E+007
  1343.59        987179.       0.480303E+011   5415.25       0.610875E+007  0.266362E+007
  1391.03        987179.       0.482957E+011   5411.90       0.610151E+007  0.265518E+007
  1438.46        987179.       0.485617E+011   5408.53       0.609424E+007  0.264672E+007
  1485.90        987179.       0.488282E+011   5405.15       0.608695E+007  0.263822E+007
  1533.33        987179.       0.490951E+011   5401.77       0.607964E+007  0.262970E+007
  1580.77        987179.       0.493625E+011   5398.37       0.607231E+007  0.262115E+007
  1628.21        987179.       0.496301E+011   5394.96       0.606496E+007  0.261258E+007
  1675.64        987179.       0.498981E+011   5391.53       0.605760E+007  0.260398E+007
  1723.08        987179.       0.501664E+011   5388.10       0.605022E+007  0.259537E+007
  1770.51        987179.       0.504348E+011   5384.66       0.604283E+007  0.258673E+007
  1817.95        987179.       0.507035E+011   5381.21       0.603543E+007  0.257807E+007
  1865.38        987179.       0.509723E+011   5377.76       0.602801E+007  0.256940E+007
  1912.82        987179.       0.512413E+011   5374.29       0.602058E+007  0.256070E+007
  1960.26        987179.       0.515104E+011   5370.82       0.601314E+007  0.255199E+007
  2007.69        987179.       0.517796E+011   5367.33       0.600568E+007  0.254326E+007
  2055.13        987179.       0.520489E+011   5363.84       0.599822E+007  0.253451E+007
  2102.56        987179.       0.523183E+011   5360.34       0.599075E+007  0.252575E+007
  2150.00        987179.       0.525877E+011   5356.84       0.598326E+007  0.251697E+007
  300.000       0.100513E+007  0.452056E+011   5563.41       0.606896E+007  0.293479E+007
  347.436       0.100513E+007  0.453299E+011   5558.74       0.607429E+007  0.292647E+007
  394.872       0.100513E+007  0.454751E+011   5553.46       0.608015E+007  0.291703E+007
  442.308       0.100513E+007  0.456365E+011   5547.57       0.608685E+007  0.290655E+007
  489.744       0.100513E+007  0.458102E+011   5541.05       0.609481E+007  0.289505E+007
  537.179       0.100513E+007  0.459925E+011   5533.83       0.610456E+007  0.288247E+007
  584.615       0.100513E+007  0.461801E+011   5525.80       0.611674E+007  0.286869E+007
  632.051       0.100513E+007  0.463698E+011   5516.81       0.613221E+007  0.285347E+007
  679.487       0.100513E+007  0.465587E+011   5506.61       0.615206E+007  0.283644E+007
  726.923       0.100513E+007  0.467434E+011   5494.88       0.617784E+007  0.281709E+007
  774.359       0.100513E+007  0.469198E+011   5481.15       0.621174E+007  0.279463E+007
  821.795       0.100513E+007  0.470956E+011   5466.77       0.624894E+007  0.277087E+007
  869.231       0.100513E+007  0.473451E+011   5463.70       0.624221E+007  0.276308E+007
  916.667       0.100513E+007  0.475974E+011   5460.59       0.623541E+007  0.275521E+007
  964.103       0.100513E+007  0.478519E+011   5457.44       0.622854E+007  0.274725E+007
  1011.54       0.100513E+007  0.481083E+011   5454.27       0.622161E+007  0.273921E+007
  1058.97       0.100513E+007  0.483664E+011   5451.07       0.621463E+007  0.273112E+007
  1106.41       0.100513E+007  0.486261E+011   5447.85       0.620760E+007  0.272297E+007
  1153.85       0.100513E+007  0.488869E+011   5444.61       0.620053E+007  0.271476E+007
  1201.28       0.100513E+007  0.491489E+011   5441.34       0.619342E+007  0.270651E+007
  1248.72       0.100513E+007  0.494119E+011   5438.06       0.618628E+007  0.269822E+007
  1296.15       0.100513E+007  0.496757E+011   5434.77       0.617911E+007  0.268988E+007
  1343.59       0.100513E+007  0.499403E+011   5431.45       0.617191E+007  0.268151E+007
  1391.03       0.100513E+007  0.502056E+011   5428.13       0.616468E+007  0.267311E+007
  1438.46       0.100513E+007  0.504714E+011   5424.78       0.615744E+007  0.266468E+007
  1485.90       0.100513E+007  0.507377E+011   5421.43       0.615017E+007  0.265622E+007
  1533.33       0.100513E+007  0.510045E+011   5418.07       0.614288E+007  0.264773E+007
  1580.77       0.100513E+007  0.512717E+011   5414.69       0.613557E+007  0.263921E+007
  1628.21       0.100513E+007  0.515392E+011   5411.30       0.612824E+007  0.263068E+007
  1675.64       0.100513E+007  0.518071E+011   5407.91       0.612090E+007  0.262212E+007
  1723.08       0.100513E+007  0.520752E+011   5404.50       0.611355E+007  0.261353E+007
  1770.51       0.100513E+007  0.523435E+011   5401.08       0.610618E+007  0.260493E+007
  1817.95       0.100513E+007  0.526121E+011   5397.66       0.609879E+007  0.259631E+007
  1865.38       0.100513E+007  0.528808E+011   5394.23       0.609139E+007  0.258767E+007
  1912.82       0.100513E+007  0.531496E+011   5390.78       0.608398E+007  0.257900E+007
  1960.26       0.100513E+007  0.534186E+011   5387.33       0.607657E+007  0.257033E+007
  2007.69       0.100513E+007  0.536877E+011   5383.88       0.606913E+007  0.256163E+007
  2055.13       0.100513E+007  0.539569E+011   5380.41       0.606169E+007  0.255292E+007
  2102.56       0.100513E+007  0.542261E+011   5376.94       0.605424E+007  0.254419E+007
  2150.00       0.100513E+007  0.544954E+011   5373.46       0.604678E+007  0.253545E+007
  300.000       0.102308E+007  0.471476E+011   5582.15       0.612173E+007  0.296028E+007
  347.436       0.102308E+007  0.472756E+011   5578.18       0.612470E+007  0.295269E+007
  394.872       0.102308E+007  0.474253E+011   5573.71       0.612772E+007  0.294409E+007
  442.308       0.102308E+007  0.475924E+011   5568.79       0.613102E+007  0.293462E+007
  489.744       0.102308E+007  0.477728E+011   5563.41       0.613487E+007  0.292435E+007
  537.179       0.102308E+007  0.479633E+011   5557.55       0.613963E+007  0.291332E+007
  584.615       0.102308E+007  0.481608E+011   5551.16       0.614569E+007  0.290150E+007
  632.051       0.102308E+007  0.483627E+011   5544.15       0.615353E+007  0.288879E+007
  679.487       0.102308E+007  0.485668E+011   5536.44       0.616369E+007  0.287504E+007
  726.923       0.102308E+007  0.487708E+011   5527.87       0.617691E+007  0.286001E+007
  774.359       0.102308E+007  0.489726E+011   5518.27       0.619406E+007  0.284337E+007
  821.795       0.102308E+007  0.491695E+011   5507.36       0.621640E+007  0.282465E+007
  869.231       0.102308E+007  0.493588E+011   5494.79       0.624560E+007  0.280320E+007
  916.667       0.102308E+007  0.495364E+011   5480.04       0.628414E+007  0.277808E+007
  964.103       0.102308E+007  0.497677E+011   5473.35       0.629144E+007  0.276476E+007
  1011.54       0.102308E+007  0.500240E+011   5470.20       0.628453E+007  0.275676E+007
  1058.97       0.102308E+007  0.502819E+011   5467.02       0.627757E+007  0.274869E+007
  1106.41       0.102308E+007  0.505413E+011   5463.82       0.627056E+007  0.274057E+007
  1153.85       0.102308E+007  0.508020E+011   5460.60       0.626351E+007  0.273240E+007
  1201.28       0.102308E+007  0.510639E+011   5457.36       0.625642E+007  0.272418E+007
  1248.72       0.102308E+007  0.513267E+011   5454.10       0.624930E+007  0.271592E+007
  1296.15       0.102308E+007  0.515903E+011   5450.83       0.624215E+007  0.270762E+007
  1343.59       0.102308E+007  0.518548E+011   5447.54       0.623497E+007  0.269929E+007
  1391.03       0.102308E+007  0.521199E+011   5444.23       0.622776E+007  0.269092E+007
  1438.46       0.102308E+007  0.523855E+011   5440.92       0.622054E+007  0.268252E+007
  1485.90       0.102308E+007  0.526517E+011   5437.59       0.621329E+007  0.267409E+007
  1533.33       0.102308E+007  0.529184E+011   5434.24       0.620602E+007  0.266563E+007
  1580.77       0.102308E+007  0.531854E+011   5430.89       0.619873E+007  0.265715E+007
  1628.21       0.102308E+007  0.534528E+011   5427.53       0.619142E+007  0.264865E+007
  1675.64       0.102308E+007  0.537206E+011   5424.15       0.618410E+007  0.264012E+007
  1723.08       0.102308E+007  0.539885E+011   5420.77       0.617677E+007  0.263157E+007
  1770.51       0.102308E+007  0.542567E+011   5417.38       0.616942E+007  0.262300E+007
  1817.95       0.102308E+007  0.545252E+011   5413.98       0.616205E+007  0.261441E+007
  1865.38       0.102308E+007  0.547938E+011   5410.57       0.615467E+007  0.260581E+007
  1912.82       0.102308E+007  0.550625E+011   5407.15       0.614729E+007  0.259718E+007
  1960.26       0.102308E+007  0.553314E+011   5403.73       0.613989E+007  0.258854E+007
  2007.69       0.102308E+007  0.556003E+011   5400.29       0.613247E+007  0.257988E+007
  2055.13       0.102308E+007  0.558694E+011   5396.85       0.612505E+007  0.257120E+007
  2102.56       0.102308E+007  0.561385E+011   5393.40       0.611762E+007  0.256251E+007
  2150.00       0.102308E+007  0.564077E+011   5389.95       0.611018E+007  0.255380E+007
  300.000       0.104103E+007  0.490943E+011   5600.63       0.617869E+007  0.298418E+007
  347.436       0.104103E+007  0.492253E+011   5597.21       0.617981E+007  0.297713E+007
  394.872       0.104103E+007  0.493789E+011   5593.39       0.618065E+007  0.296912E+007
  442.308       0.104103E+007  0.495505E+011   5589.20       0.618139E+007  0.296033E+007
  489.744       0.104103E+007  0.497363E+011   5584.67       0.618228E+007  0.295088E+007
  537.179       0.104103E+007  0.499329E+011   5579.77       0.618359E+007  0.294086E+007
  584.615       0.104103E+007  0.501336E+011   5574.03       0.618353E+007  0.293090E+007
  632.051       0.104103E+007  0.503437E+011   5568.31       0.618658E+007  0.291975E+007
  679.487       0.104103E+007  0.505572E+011   5562.10       0.619102E+007  0.290795E+007
  726.923       0.104103E+007  0.507725E+011   5555.33       0.619726E+007  0.289538E+007
  774.359       0.104103E+007  0.509879E+011   5547.90       0.620578E+007  0.288186E+007
  821.795       0.104103E+007  0.512017E+011   5539.69       0.621717E+007  0.286716E+007
  869.231       0.104103E+007  0.514123E+011   5530.56       0.623221E+007  0.285096E+007
  916.667       0.104103E+007  0.516178E+011   5520.28       0.625189E+007  0.283285E+007
  964.103       0.104103E+007  0.518159E+011   5508.57       0.627759E+007  0.281226E+007
  1011.54       0.104103E+007  0.520036E+011   5495.04       0.631124E+007  0.278840E+007
  1058.97       0.104103E+007  0.522017E+011   5482.85       0.634041E+007  0.276615E+007
  1106.41       0.104103E+007  0.524610E+011   5479.68       0.633342E+007  0.275807E+007
  1153.85       0.104103E+007  0.527215E+011   5476.48       0.632639E+007  0.274993E+007
  1201.28       0.104103E+007  0.529831E+011   5473.26       0.631932E+007  0.274174E+007
  1248.72       0.104103E+007  0.532458E+011   5470.02       0.631222E+007  0.273351E+007
  1296.15       0.104103E+007  0.535093E+011   5466.77       0.630509E+007  0.272524E+007
  1343.59       0.104103E+007  0.537736E+011   5463.50       0.629793E+007  0.271694E+007
  1391.03       0.104103E+007  0.540385E+011   5460.22       0.629074E+007  0.270860E+007
  1438.46       0.104103E+007  0.543041E+011   5456.93       0.628354E+007  0.270024E+007
  1485.90       0.104103E+007  0.545701E+011   5453.62       0.627631E+007  0.269184E+007
  1533.33       0.104103E+007  0.548367E+011   5450.30       0.626906E+007  0.268342E+007
  1580.77       0.104103E+007  0.551036E+011   5446.97       0.626179E+007  0.267497E+007
  1628.21       0.104103E+007  0.553709E+011   5443.63       0.625450E+007  0.266650E+007
  1675.64       0.104103E+007  0.556384E+011   5440.28       0.624720E+007  0.265800E+007
  1723.08       0.104103E+007  0.559063E+011   5436.92       0.623988E+007  0.264949E+007
  1770.51       0.104103E+007  0.561744E+011   5433.55       0.623255E+007  0.264095E+007
  1817.95       0.104103E+007  0.564427E+011   5430.17       0.622521E+007  0.263240E+007
  1865.38       0.104103E+007  0.567112E+011   5426.79       0.621785E+007  0.262382E+007
  1912.82       0.104103E+007  0.569798E+011   5423.39       0.621048E+007  0.261523E+007
  1960.26       0.104103E+007  0.572486E+011   5419.99       0.620310E+007  0.260662E+007
  2007.69       0.104103E+007  0.575174E+011   5416.58       0.619571E+007  0.259799E+007
  2055.13       0.104103E+007  0.577864E+011   5413.16       0.618831E+007  0.258935E+007
  2102.56       0.104103E+007  0.580554E+011   5409.74       0.618090E+007  0.258069E+007
  2150.00       0.104103E+007  0.583245E+011   5406.31       0.617348E+007  0.257202E+007
  300.000       0.105897E+007  0.510398E+011   5618.18       0.623474E+007  0.300795E+007
  347.436       0.105897E+007  0.511739E+011   5615.26       0.623424E+007  0.300128E+007
  394.872       0.105897E+007  0.513312E+011   5612.01       0.623319E+007  0.299368E+007
  442.308       0.105897E+007  0.515073E+011   5608.47       0.623177E+007  0.298537E+007
  489.744       0.105897E+007  0.516980E+011   5604.66       0.623022E+007  0.297651E+007
  537.179       0.105897E+007  0.519000E+011   5600.55       0.622879E+007  0.296721E+007
  584.615       0.105897E+007  0.521104E+011   5596.13       0.622773E+007  0.295752E+007
  632.051       0.105897E+007  0.523269E+011   5591.37       0.622729E+007  0.294745E+007
  679.487       0.105897E+007  0.525476E+011   5586.23       0.622774E+007  0.293696E+007
  726.923       0.105897E+007  0.527709E+011   5580.67       0.622936E+007  0.292601E+007
  774.359       0.105897E+007  0.529954E+011   5574.64       0.623244E+007  0.291447E+007
  821.795       0.105897E+007  0.532160E+011   5567.62       0.623526E+007  0.290286E+007
  869.231       0.105897E+007  0.534391E+011   5560.44       0.624240E+007  0.288971E+007
  916.667       0.105897E+007  0.536597E+011   5552.53       0.625230E+007  0.287544E+007
  964.103       0.105897E+007  0.538764E+011   5543.77       0.626561E+007  0.285976E+007
  1011.54       0.105897E+007  0.540877E+011   5533.98       0.628318E+007  0.284228E+007
  1058.97       0.105897E+007  0.542919E+011   5522.93       0.630615E+007  0.282249E+007
  1106.41       0.105897E+007  0.544865E+011   5510.30       0.633610E+007  0.279970E+007
  1153.85       0.105897E+007  0.546684E+011   5495.63       0.637526E+007  0.277298E+007
  1201.28       0.105897E+007  0.549067E+011   5489.04       0.638213E+007  0.275918E+007
  1248.72       0.105897E+007  0.551692E+011   5485.83       0.637505E+007  0.275098E+007
  1296.15       0.105897E+007  0.554325E+011   5482.60       0.636794E+007  0.274275E+007
  1343.59       0.105897E+007  0.556967E+011   5479.35       0.636080E+007  0.273447E+007
  1391.03       0.105897E+007  0.559615E+011   5476.09       0.635363E+007  0.272617E+007
  1438.46       0.105897E+007  0.562269E+011   5472.82       0.634644E+007  0.271783E+007
  1485.90       0.105897E+007  0.564928E+011   5469.53       0.633923E+007  0.270947E+007
  1533.33       0.105897E+007  0.567592E+011   5466.24       0.633200E+007  0.270108E+007
  1580.77       0.105897E+007  0.570260E+011   5462.93       0.632475E+007  0.269266E+007
  1628.21       0.105897E+007  0.572932E+011   5459.61       0.631748E+007  0.268422E+007
  1675.64       0.105897E+007  0.575607E+011   5456.29       0.631020E+007  0.267576E+007
  1723.08       0.105897E+007  0.578284E+011   5452.95       0.630290E+007  0.266728E+007
  1770.51       0.105897E+007  0.580964E+011   5449.60       0.629559E+007  0.265878E+007
  1817.95       0.105897E+007  0.583646E+011   5446.25       0.628827E+007  0.265025E+007
  1865.38       0.105897E+007  0.586330E+011   5442.89       0.628093E+007  0.264171E+007
  1912.82       0.105897E+007  0.589015E+011   5439.51       0.627358E+007  0.263315E+007
  1960.26       0.105897E+007  0.591702E+011   5436.14       0.626622E+007  0.262458E+007
  2007.69       0.105897E+007  0.594389E+011   5432.75       0.625884E+007  0.261598E+007
  2055.13       0.105897E+007  0.597078E+011   5429.35       0.625146E+007  0.260737E+007
  2102.56       0.105897E+007  0.599767E+011   5425.95       0.624407E+007  0.259875E+007
  2150.00       0.105897E+007  0.602457E+011   5422.55       0.623667E+007  0.259011E+007
  300.000       0.107692E+007  0.529893E+011   5635.45       0.629133E+007  0.303112E+007
  347.436       0.107692E+007  0.531269E+011   5633.03       0.628925E+007  0.302470E+007
  394.872       0.107692E+007  0.532885E+011   5630.35       0.628637E+007  0.301737E+007
  442.308       0.107692E+007  0.534693E+011   5627.43       0.628291E+007  0.300939E+007
  489.744       0.107692E+007  0.536652E+011   5624.29       0.627912E+007  0.300095E+007
  537.179       0.107692E+007  0.538726E+011   5620.89       0.627526E+007  0.299218E+007
  584.615       0.107692E+007  0.540886E+011   5617.23       0.627156E+007  0.298314E+007
  632.051       0.107692E+007  0.543111E+011   5613.28       0.626826E+007  0.297388E+007
  679.487       0.107692E+007  0.545381E+011   5609.02       0.626556E+007  0.296439E+007
  726.923       0.107692E+007  0.547681E+011   5604.41       0.626367E+007  0.295461E+007
  774.359       0.107692E+007  0.549998E+011   5599.42       0.626281E+007  0.294450E+007
  821.795       0.107692E+007  0.552321E+011   5594.02       0.626322E+007  0.293395E+007
  869.231       0.107692E+007  0.554640E+011   5588.15       0.626515E+007  0.292286E+007
  916.667       0.107692E+007  0.556945E+011   5581.76       0.626892E+007  0.291108E+007
  964.103       0.107692E+007  0.559228E+011   5574.77       0.627489E+007  0.289843E+007
  1011.54       0.107692E+007  0.561441E+011   5566.66       0.628143E+007  0.288537E+007
  1058.97       0.107692E+007  0.563649E+011   5558.19       0.629329E+007  0.287027E+007
  1106.41       0.107692E+007  0.565801E+011   5548.79       0.630912E+007  0.285346E+007
  1153.85       0.107692E+007  0.567883E+011   5538.24       0.632990E+007  0.283446E+007
  1201.28       0.107692E+007  0.569875E+011   5526.28       0.635695E+007  0.281268E+007
  1248.72       0.107692E+007  0.571751E+011   5512.57       0.639210E+007  0.278727E+007
  1296.15       0.107692E+007  0.573600E+011   5498.31       0.643069E+007  0.276013E+007
  1343.59       0.107692E+007  0.576240E+011   5495.09       0.642357E+007  0.275189E+007
  1391.03       0.107692E+007  0.578887E+011   5491.85       0.641642E+007  0.274362E+007
  1438.46       0.107692E+007  0.581540E+011   5488.60       0.640925E+007  0.273532E+007
  1485.90       0.107692E+007  0.584198E+011   5485.33       0.640205E+007  0.272698E+007
  1533.33       0.107692E+007  0.586861E+011   5482.06       0.639485E+007  0.271862E+007
  1580.77       0.107692E+007  0.589527E+011   5478.77       0.638761E+007  0.271024E+007
  1628.21       0.107692E+007  0.592198E+011   5475.48       0.638036E+007  0.270183E+007
  1675.64       0.107692E+007  0.594872E+011   5472.17       0.637310E+007  0.269340E+007
  1723.08       0.107692E+007  0.597548E+011   5468.86       0.636582E+007  0.268495E+007
  1770.51       0.107692E+007  0.600227E+011   5465.54       0.635853E+007  0.267648E+007
  1817.95       0.107692E+007  0.602908E+011   5462.20       0.635122E+007  0.266799E+007
  1865.38       0.107692E+007  0.605591E+011   5458.86       0.634390E+007  0.265948E+007
  1912.82       0.107692E+007  0.608275E+011   5455.51       0.633657E+007  0.265095E+007
  1960.26       0.107692E+007  0.610961E+011   5452.16       0.632923E+007  0.264241E+007
  2007.69       0.107692E+007  0.613648E+011   5448.79       0.632188E+007  0.263385E+007
  2055.13       0.107692E+007  0.616335E+011   5445.42       0.631452E+007  0.262527E+007
  2102.56       0.107692E+007  0.619024E+011   5442.04       0.630714E+007  0.261668E+007
  2150.00       0.107692E+007  0.621713E+011   5438.66       0.629976E+007  0.260807E+007
  300.000       0.109487E+007  0.549440E+011   5652.60       0.634794E+007  0.305373E+007
  347.436       0.109487E+007  0.550861E+011   5650.71       0.634417E+007  0.304742E+007
  394.872       0.109487E+007  0.552529E+011   5648.64       0.633935E+007  0.304024E+007
  442.308       0.109487E+007  0.554392E+011   5646.38       0.633379E+007  0.303246E+007
  489.744       0.109487E+007  0.556409E+011   5643.92       0.632776E+007  0.302431E+007
  537.179       0.109487E+007  0.558542E+011   5641.24       0.632154E+007  0.301594E+007
  584.615       0.109487E+007  0.560763E+011   5638.31       0.631537E+007  0.300742E+007
  632.051       0.109487E+007  0.563049E+011   5635.12       0.630946E+007  0.299881E+007
  679.487       0.109487E+007  0.565381E+011   5631.64       0.630398E+007  0.299009E+007
  726.923       0.109487E+007  0.567744E+011   5627.85       0.629913E+007  0.298126E+007
  774.359       0.109487E+007  0.570126E+011   5623.74       0.629505E+007  0.297226E+007
  821.795       0.109487E+007  0.572518E+011   5619.27       0.629193E+007  0.296302E+007
  869.231       0.109487E+007  0.574909E+011   5614.41       0.628995E+007  0.295347E+007
  916.667       0.109487E+007  0.577294E+011   5609.14       0.628930E+007  0.294351E+007
  964.103       0.109487E+007  0.579663E+011   5603.41       0.629023E+007  0.293301E+007
  1011.54       0.109487E+007  0.582010E+011   5597.16       0.629299E+007  0.292185E+007
  1058.97       0.109487E+007  0.584327E+011   5590.34       0.629793E+007  0.290983E+007
  1106.41       0.109487E+007  0.586606E+011   5582.86       0.630545E+007  0.289675E+007
  1153.85       0.109487E+007  0.588839E+011   5574.63       0.631607E+007  0.288234E+007
  1201.28       0.109487E+007  0.590977E+011   5565.07       0.632831E+007  0.286697E+007
  1248.72       0.109487E+007  0.593082E+011   5554.91       0.634727E+007  0.284882E+007
  1296.15       0.109487E+007  0.595101E+011   5543.47       0.637196E+007  0.282803E+007
  1343.59       0.109487E+007  0.597012E+011   5530.45       0.640394E+007  0.280385E+007
  1391.03       0.109487E+007  0.598786E+011   5515.45       0.644540E+007  0.277528E+007
  1438.46       0.109487E+007  0.600852E+011   5504.26       0.647196E+007  0.275268E+007
  1485.90       0.109487E+007  0.603509E+011   5501.02       0.646479E+007  0.274438E+007
  1533.33       0.109487E+007  0.606170E+011   5497.77       0.645759E+007  0.273605E+007
  1580.77       0.109487E+007  0.608836E+011   5494.50       0.645038E+007  0.272770E+007
  1628.21       0.109487E+007  0.611506E+011   5491.23       0.644315E+007  0.271932E+007
  1675.64       0.109487E+007  0.614179E+011   5487.95       0.643590E+007  0.271092E+007
  1723.08       0.109487E+007  0.616854E+011   5484.65       0.642864E+007  0.270250E+007
  1770.51       0.109487E+007  0.619532E+011   5481.35       0.642137E+007  0.269406E+007
  1817.95       0.109487E+007  0.622212E+011   5478.04       0.641408E+007  0.268561E+007
  1865.38       0.109487E+007  0.624894E+011   5474.72       0.640678E+007  0.267713E+007
  1912.82       0.109487E+007  0.627578E+011   5471.40       0.639947E+007  0.266863E+007
  1960.26       0.109487E+007  0.630262E+011   5468.06       0.639215E+007  0.266012E+007
  2007.69       0.109487E+007  0.632948E+011   5464.72       0.638481E+007  0.265159E+007
  2055.13       0.109487E+007  0.635635E+011   5461.37       0.637748E+007  0.264305E+007
  2102.56       0.109487E+007  0.638323E+011   5458.02       0.637012E+007  0.263449E+007
  2150.00       0.109487E+007  0.641011E+011   5454.65       0.636275E+007  0.262591E+007
  300.000       0.111282E+007  0.569057E+011   5669.78       0.640405E+007  0.307575E+007
  347.436       0.111282E+007  0.570538E+011   5668.54       0.639829E+007  0.306940E+007
  394.872       0.111282E+007  0.572271E+011   5667.16       0.639128E+007  0.306222E+007
  442.308       0.111282E+007  0.574203E+011   5665.63       0.638340E+007  0.305454E+007
  489.744       0.111282E+007  0.576288E+011   5663.92       0.637497E+007  0.304658E+007
  537.179       0.111282E+007  0.578491E+011   5661.99       0.636629E+007  0.303850E+007
  584.615       0.111282E+007  0.580780E+011   5659.81       0.635761E+007  0.303041E+007
  632.051       0.111282E+007  0.583133E+011   5657.38       0.634912E+007  0.302233E+007
  679.487       0.111282E+007  0.585531E+011   5654.67       0.634099E+007  0.301428E+007
  726.923       0.111282E+007  0.587960E+011   5651.67       0.633338E+007  0.300624E+007
  774.359       0.111282E+007  0.590409E+011   5648.36       0.632641E+007  0.299818E+007
  821.795       0.111282E+007  0.592867E+011   5644.73       0.632023E+007  0.299003E+007
  869.231       0.111282E+007  0.595327E+011   5640.75       0.631495E+007  0.298174E+007
  916.667       0.111282E+007  0.597782E+011   5636.40       0.631073E+007  0.297324E+007
  964.103       0.111282E+007  0.600225E+011   5631.66       0.630773E+007  0.296443E+007
  1011.54       0.111282E+007  0.602650E+011   5626.50       0.630612E+007  0.295522E+007
  1058.97       0.111282E+007  0.605053E+011   5620.88       0.630611E+007  0.294548E+007
  1106.41       0.111282E+007  0.607425E+011   5614.75       0.630794E+007  0.293508E+007
  1153.85       0.111282E+007  0.609763E+011   5608.05       0.631193E+007  0.292384E+007
  1201.28       0.111282E+007  0.612058E+011   5600.72       0.631844E+007  0.291155E+007
  1248.72       0.111282E+007  0.614303E+011   5592.67       0.632793E+007  0.289797E+007
  1296.15       0.111282E+007  0.616489E+011   5583.77       0.634099E+007  0.288278E+007
  1343.59       0.111282E+007  0.618604E+011   5573.89       0.635840E+007  0.286557E+007
  1391.03       0.111282E+007  0.620634E+011   5562.83       0.638112E+007  0.284584E+007
  1438.46       0.111282E+007  0.622522E+011   5549.90       0.640840E+007  0.282363E+007
  1485.90       0.111282E+007  0.624321E+011   5535.62       0.644634E+007  0.279657E+007
  1533.33       0.111282E+007  0.625958E+011   5519.09       0.649545E+007  0.276416E+007
  1580.77       0.111282E+007  0.628186E+011   5510.12       0.651306E+007  0.274504E+007
  1628.21       0.111282E+007  0.630855E+011   5506.87       0.650584E+007  0.273670E+007
  1675.64       0.111282E+007  0.633527E+011   5503.61       0.649862E+007  0.272833E+007
  1723.08       0.111282E+007  0.636201E+011   5500.33       0.649137E+007  0.271994E+007
  1770.51       0.111282E+007  0.638878E+011   5497.05       0.648412E+007  0.271153E+007
  1817.95       0.111282E+007  0.641558E+011   5493.77       0.647685E+007  0.270310E+007
  1865.38       0.111282E+007  0.644239E+011   5490.47       0.646957E+007  0.269466E+007
  1912.82       0.111282E+007  0.646922E+011   5487.16       0.646227E+007  0.268619E+007
  1960.26       0.111282E+007  0.649606E+011   5483.85       0.645497E+007  0.267771E+007
  2007.69       0.111282E+007  0.652291E+011   5480.53       0.644765E+007  0.266922E+007
  2055.13       0.111282E+007  0.654977E+011   5477.21       0.644033E+007  0.266070E+007
  2102.56       0.111282E+007  0.657664E+011   5473.87       0.643299E+007  0.265217E+007
  2150.00       0.111282E+007  0.660351E+011   5470.53       0.642565E+007  0.264363E+007
  300.000       0.113077E+007  0.588768E+011   5687.24       0.645895E+007  0.309705E+007
  347.436       0.113077E+007  0.590330E+011   5686.78       0.645074E+007  0.309049E+007
  394.872       0.113077E+007  0.592149E+011   5686.24       0.644112E+007  0.308317E+007
  442.308       0.113077E+007  0.594168E+011   5685.57       0.643054E+007  0.307546E+007
  489.744       0.113077E+007  0.596339E+011   5684.70       0.641940E+007  0.306760E+007
  537.179       0.113077E+007  0.598624E+011   5683.61       0.640801E+007  0.305976E+007
  584.615       0.113077E+007  0.600994E+011   5682.27       0.639661E+007  0.305201E+007
  632.051       0.113077E+007  0.603426E+011   5680.65       0.638541E+007  0.304441E+007
  679.487       0.113077E+007  0.605900E+011   5678.75       0.637455E+007  0.303696E+007
  726.923       0.113077E+007  0.608403E+011   5676.56       0.636416E+007  0.302964E+007
  774.359       0.113077E+007  0.610925E+011   5674.05       0.635437E+007  0.302241E+007
  821.795       0.113077E+007  0.613454E+011   5671.22       0.634526E+007  0.301523E+007
  869.231       0.113077E+007  0.615985E+011   5668.07       0.633696E+007  0.300806E+007
  916.667       0.113077E+007  0.618511E+011   5664.57       0.632955E+007  0.300082E+007
  964.103       0.113077E+007  0.621026E+011   5660.71       0.632315E+007  0.299345E+007
  1011.54       0.113077E+007  0.623525E+011   5656.48       0.631789E+007  0.298587E+007
  1058.97       0.113077E+007  0.626003E+011   5651.84       0.631390E+007  0.297799E+007
  1106.41       0.113077E+007  0.628455E+011   5646.77       0.631135E+007  0.296971E+007
  1153.85       0.113077E+007  0.630877E+011   5641.24       0.631043E+007  0.296092E+007
  1201.28       0.113077E+007  0.633264E+011   5635.20       0.631136E+007  0.295146E+007
  1248.72       0.113077E+007  0.635610E+011   5628.59       0.631443E+007  0.294119E+007
  1296.15       0.113077E+007  0.637910E+011   5621.37       0.631997E+007  0.292989E+007
  1343.59       0.113077E+007  0.640156E+011   5613.43       0.632842E+007  0.291732E+007
  1391.03       0.113077E+007  0.642339E+011   5604.68       0.634031E+007  0.290319E+007
  1438.46       0.113077E+007  0.644450E+011   5595.00       0.635632E+007  0.288710E+007
  1485.90       0.113077E+007  0.646476E+011   5584.20       0.637736E+007  0.286857E+007
  1533.33       0.113077E+007  0.648401E+011   5572.08       0.640461E+007  0.284697E+007
  1580.77       0.113077E+007  0.650203E+011   5558.32       0.643969E+007  0.282146E+007
  1628.21       0.113077E+007  0.651814E+011   5542.09       0.648269E+007  0.279168E+007
  1675.64       0.113077E+007  0.653274E+011   5523.68       0.654117E+007  0.275456E+007
  1723.08       0.113077E+007  0.655589E+011   5515.90       0.655401E+007  0.273726E+007
  1770.51       0.113077E+007  0.658266E+011   5512.65       0.654677E+007  0.272888E+007
  1817.95       0.113077E+007  0.660944E+011   5509.38       0.653952E+007  0.272049E+007
  1865.38       0.113077E+007  0.663624E+011   5506.10       0.653226E+007  0.271207E+007
  1912.82       0.113077E+007  0.666306E+011   5502.82       0.652498E+007  0.270364E+007
  1960.26       0.113077E+007  0.668990E+011   5499.53       0.651769E+007  0.269519E+007
  2007.69       0.113077E+007  0.671674E+011   5496.23       0.651039E+007  0.268672E+007
  2055.13       0.113077E+007  0.674360E+011   5492.92       0.650309E+007  0.267824E+007
  2102.56       0.113077E+007  0.677046E+011   5489.61       0.649577E+007  0.266974E+007
  2150.00       0.113077E+007  0.679733E+011   5486.29       0.648844E+007  0.266123E+007
  300.000       0.114872E+007  0.608616E+011   5705.30       0.651158E+007  0.311737E+007
  347.436       0.114872E+007  0.610290E+011   5705.85       0.650022E+007  0.311039E+007
  394.872       0.114872E+007  0.612222E+011   5706.36       0.648735E+007  0.310279E+007
  442.308       0.114872E+007  0.614353E+011   5706.72       0.647352E+007  0.309495E+007
  489.744       0.114872E+007  0.616633E+011   5706.87       0.645918E+007  0.308712E+007
  537.179       0.114872E+007  0.619022E+011   5706.76       0.644465E+007  0.307945E+007
  584.615       0.114872E+007  0.621492E+011   5706.37       0.643017E+007  0.307203E+007
  632.051       0.114872E+007  0.624018E+011   5705.68       0.641594E+007  0.306487E+007
  679.487       0.114872E+007  0.626583E+011   5704.68       0.640210E+007  0.305799E+007
  726.923       0.114872E+007  0.629174E+011   5703.36       0.638875E+007  0.305135E+007
  774.359       0.114872E+007  0.631780E+011   5701.71       0.637599E+007  0.304492E+007
  821.795       0.114872E+007  0.634392E+011   5699.74       0.636390E+007  0.303866E+007
  869.231       0.114872E+007  0.637003E+011   5697.42       0.635256E+007  0.303252E+007
  916.667       0.114872E+007  0.639607E+011   5694.77       0.634205E+007  0.302645E+007
  964.103       0.114872E+007  0.642198E+011   5691.77       0.633244E+007  0.302039E+007
  1011.54       0.114872E+007  0.644774E+011   5688.40       0.632382E+007  0.301428E+007
  1058.97       0.114872E+007  0.647328E+011   5684.66       0.631630E+007  0.300804E+007
  1106.41       0.114872E+007  0.649858E+011   5680.52       0.630997E+007  0.300161E+007
  1153.85       0.114872E+007  0.652359E+011   5675.97       0.630497E+007  0.299489E+007
  1201.28       0.114872E+007  0.654827E+011   5670.98       0.630145E+007  0.298778E+007
  1248.72       0.114872E+007  0.657259E+011   5665.51       0.629959E+007  0.298017E+007
  1296.15       0.114872E+007  0.659650E+011   5659.53       0.629959E+007  0.297192E+007
  1343.59       0.114872E+007  0.661994E+011   5652.98       0.630173E+007  0.296287E+007
  1391.03       0.114872E+007  0.664287E+011   5645.81       0.630631E+007  0.295281E+007
  1438.46       0.114872E+007  0.666522E+011   5637.94       0.631374E+007  0.294152E+007
  1485.90       0.114872E+007  0.668691E+011   5629.28       0.632452E+007  0.292870E+007
  1533.33       0.114872E+007  0.670784E+011   5619.70       0.633926E+007  0.291398E+007
  1580.77       0.114872E+007  0.672790E+011   5609.06       0.635879E+007  0.289689E+007
  1628.21       0.114872E+007  0.674694E+011   5597.16       0.638417E+007  0.287685E+007
  1675.64       0.114872E+007  0.676477E+011   5583.74       0.641686E+007  0.285305E+007
  1723.08       0.114872E+007  0.678114E+011   5568.44       0.645879E+007  0.282448E+007
  1770.51       0.114872E+007  0.679570E+011   5550.77       0.651276E+007  0.278970E+007
  1817.95       0.114872E+007  0.680758E+011   5529.61       0.658065E+007  0.274751E+007
  1865.38       0.114872E+007  0.683050E+011   5521.62       0.659485E+007  0.272937E+007
  1912.82       0.114872E+007  0.685732E+011   5518.36       0.658760E+007  0.272096E+007
  1960.26       0.114872E+007  0.688414E+011   5515.09       0.658033E+007  0.271254E+007
  2007.69       0.114872E+007  0.691098E+011   5511.81       0.657304E+007  0.270411E+007
  2055.13       0.114872E+007  0.693783E+011   5508.53       0.656575E+007  0.269566E+007
  2102.56       0.114872E+007  0.696469E+011   5505.24       0.655845E+007  0.268719E+007
  2150.00       0.114872E+007  0.699155E+011   5501.94       0.655115E+007  0.267871E+007
  300.000       0.116667E+007  0.628670E+011   5724.53       0.656019E+007  0.313627E+007
  347.436       0.116667E+007  0.630501E+011   5726.44       0.654466E+007  0.312864E+007
  394.872       0.116667E+007  0.632587E+011   5728.29       0.652762E+007  0.312060E+007
  442.308       0.116667E+007  0.634866E+011   5729.95       0.650974E+007  0.311254E+007
  489.744       0.116667E+007  0.637286E+011   5731.35       0.649148E+007  0.310470E+007
  537.179       0.116667E+007  0.639809E+011   5732.44       0.647317E+007  0.309719E+007
  584.615       0.116667E+007  0.642404E+011   5733.19       0.645504E+007  0.309007E+007
  632.051       0.116667E+007  0.645050E+011   5733.59       0.643728E+007  0.308336E+007
  679.487       0.116667E+007  0.647588E+011   5732.49       0.642371E+007  0.307730E+007
  726.923       0.116667E+007  0.649895E+011   5728.96       0.641748E+007  0.307175E+007
  774.359       0.116667E+007  0.652251E+011   5725.35       0.641110E+007  0.306607E+007
  821.795       0.116667E+007  0.654647E+011   5721.68       0.640462E+007  0.306029E+007
  869.231       0.116667E+007  0.657078E+011   5717.94       0.639803E+007  0.305441E+007
  916.667       0.116667E+007  0.659538E+011   5714.15       0.639136E+007  0.304844E+007
  964.103       0.116667E+007  0.662024E+011   5710.31       0.638461E+007  0.304240E+007
  1011.54       0.116667E+007  0.664532E+011   5706.44       0.637779E+007  0.303630E+007
  1058.97       0.116667E+007  0.667060E+011   5702.52       0.637092E+007  0.303013E+007
  1106.41       0.116667E+007  0.669603E+011   5698.58       0.636400E+007  0.302391E+007
  1153.85       0.116667E+007  0.672161E+011   5694.60       0.635704E+007  0.301765E+007
  1201.28       0.116667E+007  0.674732E+011   5690.60       0.635003E+007  0.301133E+007
  1248.72       0.116667E+007  0.677314E+011   5686.57       0.634298E+007  0.300498E+007
  1296.15       0.116667E+007  0.679906E+011   5682.51       0.633591E+007  0.299859E+007
  1343.59       0.116667E+007  0.682506E+011   5678.44       0.632880E+007  0.299216E+007
  1391.03       0.116667E+007  0.685114E+011   5674.35       0.632167E+007  0.298570E+007
  1438.46       0.116667E+007  0.687728E+011   5670.23       0.631451E+007  0.297920E+007
  1485.90       0.116667E+007  0.690348E+011   5666.10       0.630733E+007  0.297268E+007
  1533.33       0.116667E+007  0.692974E+011   5661.96       0.630013E+007  0.296613E+007
  1580.77       0.116667E+007  0.695604E+011   5657.79       0.629291E+007  0.295955E+007
  1628.21       0.116667E+007  0.697807E+011   5649.57       0.630135E+007  0.294807E+007
  1675.64       0.116667E+007  0.699775E+011   5638.97       0.631949E+007  0.293280E+007
  1723.08       0.116667E+007  0.701637E+011   5627.16       0.634322E+007  0.291466E+007
  1770.51       0.116667E+007  0.703377E+011   5613.89       0.637382E+007  0.289291E+007
  1817.95       0.116667E+007  0.704972E+011   5598.85       0.641306E+007  0.286655E+007
  1865.38       0.116667E+007  0.706389E+011   5581.62       0.646337E+007  0.283428E+007
  1912.82       0.116667E+007  0.707588E+011   5561.60       0.652824E+007  0.279427E+007
  1960.26       0.116667E+007  0.708508E+011   5537.92       0.661286E+007  0.274394E+007
  2007.69       0.116667E+007  0.710562E+011   5527.29       0.663560E+007  0.272138E+007
  2055.13       0.116667E+007  0.713246E+011   5524.03       0.662833E+007  0.271296E+007
  2102.56       0.116667E+007  0.715931E+011   5520.76       0.662105E+007  0.270453E+007
  2150.00       0.116667E+007  0.718617E+011   5517.48       0.661376E+007  0.269608E+007
  300.000       0.118462E+007  0.649062E+011   5745.96       0.660165E+007  0.315296E+007
  347.436       0.118462E+007  0.651114E+011   5749.72       0.658043E+007  0.314445E+007
  394.872       0.118462E+007  0.653412E+011   5753.36       0.655790E+007  0.313585E+007
  442.308       0.118462E+007  0.655891E+011   5756.72       0.653477E+007  0.312751E+007
  489.744       0.118462E+007  0.658500E+011   5759.73       0.651152E+007  0.311963E+007
  537.179       0.118462E+007  0.660721E+011   5758.53       0.650045E+007  0.311398E+007
  584.615       0.118462E+007  0.662813E+011   5755.37       0.649481E+007  0.310899E+007
  632.051       0.118462E+007  0.664988E+011   5752.07       0.648895E+007  0.310380E+007
  679.487       0.118462E+007  0.667233E+011   5748.66       0.648289E+007  0.309843E+007
  726.923       0.118462E+007  0.669536E+011   5745.16       0.647667E+007  0.309292E+007
  774.359       0.118462E+007  0.671887E+011   5741.57       0.647032E+007  0.308728E+007
  821.795       0.118462E+007  0.674279E+011   5737.92       0.646385E+007  0.308153E+007
  869.231       0.118462E+007  0.676706E+011   5734.21       0.645728E+007  0.307568E+007
  916.667       0.118462E+007  0.679163E+011   5730.45       0.645063E+007  0.306975E+007
  964.103       0.118462E+007  0.681646E+011   5726.64       0.644390E+007  0.306375E+007
  1011.54       0.118462E+007  0.684150E+011   5722.79       0.643710E+007  0.305768E+007
  1058.97       0.118462E+007  0.686674E+011   5718.90       0.643025E+007  0.305155E+007
  1106.41       0.118462E+007  0.689215E+011   5714.98       0.642335E+007  0.304537E+007
  1153.85       0.118462E+007  0.691770E+011   5711.03       0.641640E+007  0.303914E+007
  1201.28       0.118462E+007  0.694338E+011   5707.05       0.640941E+007  0.303286E+007
  1248.72       0.118462E+007  0.696917E+011   5703.05       0.640238E+007  0.302655E+007
  1296.15       0.118462E+007  0.699506E+011   5699.02       0.639532E+007  0.302019E+007
  1343.59       0.118462E+007  0.702103E+011   5694.97       0.638823E+007  0.301380E+007
  1391.03       0.118462E+007  0.704708E+011   5690.91       0.638111E+007  0.300738E+007
  1438.46       0.118462E+007  0.707320E+011   5686.82       0.637397E+007  0.300092E+007
  1485.90       0.118462E+007  0.709938E+011   5682.72       0.636681E+007  0.299443E+007
  1533.33       0.118462E+007  0.712561E+011   5678.60       0.635962E+007  0.298792E+007
  1580.77       0.118462E+007  0.715189E+011   5674.46       0.635242E+007  0.298138E+007
  1628.21       0.118462E+007  0.717820E+011   5670.31       0.634520E+007  0.297481E+007
  1675.64       0.118462E+007  0.720456E+011   5666.14       0.633796E+007  0.296822E+007
  1723.08       0.118462E+007  0.723094E+011   5661.97       0.633070E+007  0.296161E+007
  1770.51       0.118462E+007  0.725736E+011   5657.77       0.632344E+007  0.295497E+007
  1817.95       0.118462E+007  0.728379E+011   5653.57       0.631615E+007  0.294831E+007
  1865.38       0.118462E+007  0.731025E+011   5649.36       0.630886E+007  0.294163E+007
  1912.82       0.118462E+007  0.732743E+011   5636.25       0.633807E+007  0.292085E+007
  1960.26       0.118462E+007  0.734080E+011   5619.16       0.638533E+007  0.289151E+007
  2007.69       0.118462E+007  0.735201E+011   5599.46       0.644598E+007  0.285476E+007
  2055.13       0.118462E+007  0.736051E+011   5576.39       0.652452E+007  0.280820E+007
  2102.56       0.118462E+007  0.736553E+011   5548.87       0.662775E+007  0.274843E+007
  2150.00       0.118462E+007  0.738118E+011   5532.91       0.667628E+007  0.271333E+007
  300.000       0.120256E+007  0.670049E+011   5771.62       0.662985E+007  0.316610E+007
  347.436       0.120256E+007  0.672425E+011   5778.01       0.660060E+007  0.315651E+007
  394.872       0.120256E+007  0.674865E+011   5782.87       0.657442E+007  0.314806E+007
  442.308       0.120256E+007  0.676575E+011   5780.31       0.656983E+007  0.314402E+007
  489.744       0.120256E+007  0.678435E+011   5777.51       0.656483E+007  0.313961E+007
  537.179       0.120256E+007  0.680420E+011   5774.53       0.655949E+007  0.313491E+007
  584.615       0.120256E+007  0.682507E+011   5771.38       0.655387E+007  0.312996E+007
  632.051       0.120256E+007  0.684677E+011   5768.11       0.654803E+007  0.312480E+007
  679.487       0.120256E+007  0.686917E+011   5764.72       0.654199E+007  0.311947E+007
  726.923       0.120256E+007  0.689215E+011   5761.25       0.653579E+007  0.311399E+007
  774.359       0.120256E+007  0.691562E+011   5757.69       0.652946E+007  0.310839E+007
  821.795       0.120256E+007  0.693951E+011   5754.06       0.652301E+007  0.310267E+007
  869.231       0.120256E+007  0.696374E+011   5750.38       0.651646E+007  0.309686E+007
  916.667       0.120256E+007  0.698827E+011   5746.64       0.650982E+007  0.309097E+007
  964.103       0.120256E+007  0.701307E+011   5742.85       0.650311E+007  0.308500E+007
  1011.54       0.120256E+007  0.703808E+011   5739.03       0.649633E+007  0.307897E+007
  1058.97       0.120256E+007  0.706329E+011   5735.17       0.648950E+007  0.307287E+007
  1106.41       0.120256E+007  0.708866E+011   5731.27       0.648261E+007  0.306673E+007
  1153.85       0.120256E+007  0.711419E+011   5727.35       0.647568E+007  0.306053E+007
  1201.28       0.120256E+007  0.713984E+011   5723.39       0.646870E+007  0.305429E+007
  1248.72       0.120256E+007  0.716560E+011   5719.42       0.646169E+007  0.304801E+007
  1296.15       0.120256E+007  0.719146E+011   5715.42       0.645465E+007  0.304169E+007
  1343.59       0.120256E+007  0.721741E+011   5711.39       0.644757E+007  0.303534E+007
  1391.03       0.120256E+007  0.724344E+011   5707.35       0.644047E+007  0.302895E+007
  1438.46       0.120256E+007  0.726953E+011   5703.29       0.643335E+007  0.302253E+007
  1485.90       0.120256E+007  0.729569E+011   5699.22       0.642620E+007  0.301608E+007
  1533.33       0.120256E+007  0.732189E+011   5695.12       0.641903E+007  0.300960E+007
  1580.77       0.120256E+007  0.734815E+011   5691.01       0.641184E+007  0.300310E+007
  1628.21       0.120256E+007  0.737444E+011   5686.89       0.640464E+007  0.299657E+007
  1675.64       0.120256E+007  0.740077E+011   5682.75       0.639742E+007  0.299002E+007
  1723.08       0.120256E+007  0.742713E+011   5678.60       0.639018E+007  0.298344E+007
  1770.51       0.120256E+007  0.745352E+011   5674.43       0.638293E+007  0.297684E+007
  1817.95       0.120256E+007  0.747994E+011   5670.26       0.637566E+007  0.297022E+007
  1865.38       0.120256E+007  0.750637E+011   5666.07       0.636838E+007  0.296358E+007
  1912.82       0.120256E+007  0.753282E+011   5661.87       0.636109E+007  0.295691E+007
  1960.26       0.120256E+007  0.755929E+011   5657.66       0.635379E+007  0.295023E+007
  2007.69       0.120256E+007  0.758577E+011   5653.43       0.634648E+007  0.294353E+007
  2055.13       0.120256E+007  0.761227E+011   5649.20       0.633916E+007  0.293681E+007
  2102.56       0.120256E+007  0.763877E+011   5644.96       0.633183E+007  0.293007E+007
  2150.00       0.120256E+007  0.764873E+011   5624.75       0.639367E+007  0.289284E+007
  300.000       0.122051E+007  0.691810E+011   5802.88       0.664085E+007  0.317541E+007
  347.436       0.122051E+007  0.693104E+011   5800.95       0.663738E+007  0.317237E+007
  394.872       0.122051E+007  0.694622E+011   5798.69       0.663331E+007  0.316880E+007
  442.308       0.122051E+007  0.696325E+011   5796.15       0.662875E+007  0.316479E+007
  489.744       0.122051E+007  0.698179E+011   5793.38       0.662377E+007  0.316042E+007
  537.179       0.122051E+007  0.700158E+011   5790.42       0.661845E+007  0.315575E+007
  584.615       0.122051E+007  0.702240E+011   5787.30       0.661286E+007  0.315083E+007
  632.051       0.122051E+007  0.704405E+011   5784.05       0.660703E+007  0.314571E+007
  679.487       0.122051E+007  0.706640E+011   5780.69       0.660102E+007  0.314041E+007
  726.923       0.122051E+007  0.708934E+011   5777.23       0.659484E+007  0.313497E+007
  774.359       0.122051E+007  0.711277E+011   5773.70       0.658852E+007  0.312940E+007
  821.795       0.122051E+007  0.713661E+011   5770.10       0.658209E+007  0.312372E+007
  869.231       0.122051E+007  0.716081E+011   5766.44       0.657556E+007  0.311794E+007
  916.667       0.122051E+007  0.718531E+011   5762.72       0.656894E+007  0.311209E+007
  964.103       0.122051E+007  0.721007E+011   5758.96       0.656224E+007  0.310615E+007
  1011.54       0.122051E+007  0.723505E+011   5755.16       0.655548E+007  0.310015E+007
  1058.97       0.122051E+007  0.726023E+011   5751.33       0.654866E+007  0.309410E+007
  1106.41       0.122051E+007  0.728558E+011   5747.46       0.654179E+007  0.308799E+007
  1153.85       0.122051E+007  0.731107E+011   5743.56       0.653488E+007  0.308183E+007
  1201.28       0.122051E+007  0.733669E+011   5739.63       0.652792E+007  0.307562E+007
  1248.72       0.122051E+007  0.736243E+011   5735.68       0.652092E+007  0.306937E+007
  1296.15       0.122051E+007  0.738827E+011   5731.70       0.651390E+007  0.306309E+007
  1343.59       0.122051E+007  0.741419E+011   5727.71       0.650684E+007  0.305677E+007
  1391.03       0.122051E+007  0.744019E+011   5723.69       0.649975E+007  0.305042E+007
  1438.46       0.122051E+007  0.746626E+011   5719.66       0.649265E+007  0.304404E+007
  1485.90       0.122051E+007  0.749239E+011   5715.60       0.648551E+007  0.303762E+007
  1533.33       0.122051E+007  0.751858E+011   5711.54       0.647836E+007  0.303118E+007
  1580.77       0.122051E+007  0.754481E+011   5707.45       0.647119E+007  0.302471E+007
  1628.21       0.122051E+007  0.757108E+011   5703.36       0.646400E+007  0.301822E+007
  1675.64       0.122051E+007  0.759739E+011   5699.24       0.645679E+007  0.301171E+007
  1723.08       0.122051E+007  0.762373E+011   5695.12       0.644957E+007  0.300517E+007
  1770.51       0.122051E+007  0.765010E+011   5690.98       0.644233E+007  0.299860E+007
  1817.95       0.122051E+007  0.767649E+011   5686.83       0.643508E+007  0.299202E+007
  1865.38       0.122051E+007  0.770290E+011   5682.67       0.642782E+007  0.298541E+007
  1912.82       0.122051E+007  0.772933E+011   5678.49       0.642055E+007  0.297879E+007
  1960.26       0.122051E+007  0.775578E+011   5674.31       0.641326E+007  0.297214E+007
  2007.69       0.122051E+007  0.778224E+011   5670.11       0.640597E+007  0.296548E+007
  2055.13       0.122051E+007  0.780872E+011   5665.91       0.639866E+007  0.295880E+007
  2102.56       0.122051E+007  0.783520E+011   5661.69       0.639135E+007  0.295209E+007
  2150.00       0.122051E+007  0.786168E+011   5657.47       0.638402E+007  0.294537E+007
  300.000       0.123846E+007  0.711618E+011   5818.56       0.669963E+007  0.319600E+007
  347.436       0.123846E+007  0.712906E+011   5816.65       0.669618E+007  0.319298E+007
  394.872       0.123846E+007  0.714416E+011   5814.41       0.669213E+007  0.318944E+007
  442.308       0.123846E+007  0.716113E+011   5811.89       0.668759E+007  0.318547E+007
  489.744       0.123846E+007  0.717961E+011   5809.14       0.668263E+007  0.318113E+007
  537.179       0.123846E+007  0.719934E+011   5806.21       0.667734E+007  0.317650E+007
  584.615       0.123846E+007  0.722010E+011   5803.11       0.667176E+007  0.317161E+007
  632.051       0.123846E+007  0.724171E+011   5799.88       0.666596E+007  0.316653E+007
  679.487       0.123846E+007  0.726402E+011   5796.55       0.665996E+007  0.316126E+007
  726.923       0.123846E+007  0.728691E+011   5793.12       0.665380E+007  0.315585E+007
  774.359       0.123846E+007  0.731030E+011   5789.61       0.664751E+007  0.315032E+007
  821.795       0.123846E+007  0.733411E+011   5786.03       0.664109E+007  0.314467E+007
  869.231       0.123846E+007  0.735827E+011   5782.40       0.663458E+007  0.313893E+007
  916.667       0.123846E+007  0.738273E+011   5778.71       0.662798E+007  0.313311E+007
  964.103       0.123846E+007  0.740746E+011   5774.97       0.662130E+007  0.312721E+007
  1011.54       0.123846E+007  0.743241E+011   5771.20       0.661455E+007  0.312124E+007
  1058.97       0.123846E+007  0.745756E+011   5767.38       0.660775E+007  0.311522E+007
  1106.41       0.123846E+007  0.748288E+011   5763.54       0.660090E+007  0.310914E+007
  1153.85       0.123846E+007  0.750835E+011   5759.66       0.659400E+007  0.310302E+007
  1201.28       0.123846E+007  0.753394E+011   5755.76       0.658706E+007  0.309685E+007
  1248.72       0.123846E+007  0.755965E+011   5751.83       0.658008E+007  0.309064E+007
  1296.15       0.123846E+007  0.758546E+011   5747.88       0.657307E+007  0.308439E+007
  1343.59       0.123846E+007  0.761136E+011   5743.91       0.656602E+007  0.307810E+007
  1391.03       0.123846E+007  0.763734E+011   5739.92       0.655896E+007  0.307179E+007
  1438.46       0.123846E+007  0.766339E+011   5735.91       0.655186E+007  0.306544E+007
  1485.90       0.123846E+007  0.768950E+011   5731.89       0.654474E+007  0.305906E+007
  1533.33       0.123846E+007  0.771566E+011   5727.84       0.653761E+007  0.305266E+007
  1580.77       0.123846E+007  0.774187E+011   5723.79       0.653045E+007  0.304623E+007
  1628.21       0.123846E+007  0.776812E+011   5719.71       0.652328E+007  0.303977E+007
  1675.64       0.123846E+007  0.779440E+011   5715.63       0.651608E+007  0.303329E+007
  1723.08       0.123846E+007  0.782072E+011   5711.53       0.650888E+007  0.302678E+007
  1770.51       0.123846E+007  0.784707E+011   5707.42       0.650166E+007  0.302026E+007
  1817.95       0.123846E+007  0.787344E+011   5703.29       0.649442E+007  0.301371E+007
  1865.38       0.123846E+007  0.789984E+011   5699.16       0.648718E+007  0.300714E+007
  1912.82       0.123846E+007  0.792625E+011   5695.01       0.647992E+007  0.300055E+007
  1960.26       0.123846E+007  0.795268E+011   5690.85       0.647265E+007  0.299395E+007
  2007.69       0.123846E+007  0.797912E+011   5686.68       0.646537E+007  0.298732E+007
  2055.13       0.123846E+007  0.800557E+011   5682.50       0.645808E+007  0.298067E+007
  2102.56       0.123846E+007  0.803203E+011   5678.31       0.645078E+007  0.297401E+007
  2150.00       0.123846E+007  0.805850E+011   5674.11       0.644346E+007  0.296733E+007
  300.000       0.125641E+007  0.731463E+011   5834.14       0.675833E+007  0.321649E+007
  347.436       0.125641E+007  0.732744E+011   5832.26       0.675490E+007  0.321351E+007
  394.872       0.125641E+007  0.734248E+011   5830.04       0.675088E+007  0.321000E+007
  442.308       0.125641E+007  0.735938E+011   5827.54       0.674636E+007  0.320606E+007
  489.744       0.125641E+007  0.737780E+011   5824.81       0.674142E+007  0.320175E+007
  537.179       0.125641E+007  0.739748E+011   5821.90       0.673615E+007  0.319715E+007
  584.615       0.125641E+007  0.741818E+011   5818.83       0.673060E+007  0.319230E+007
  632.051       0.125641E+007  0.743974E+011   5815.62       0.672481E+007  0.318725E+007
  679.487       0.125641E+007  0.746200E+011   5812.31       0.671884E+007  0.318202E+007
  726.923       0.125641E+007  0.748486E+011   5808.91       0.671270E+007  0.317664E+007
  774.359       0.125641E+007  0.750821E+011   5805.42       0.670642E+007  0.317114E+007
  821.795       0.125641E+007  0.753198E+011   5801.87       0.670002E+007  0.316553E+007
  869.231       0.125641E+007  0.755610E+011   5798.25       0.669352E+007  0.315982E+007
  916.667       0.125641E+007  0.758054E+011   5794.59       0.668694E+007  0.315403E+007
  964.103       0.125641E+007  0.760523E+011   5790.88       0.668028E+007  0.314817E+007
  1011.54       0.125641E+007  0.763015E+011   5787.13       0.667355E+007  0.314224E+007
  1058.97       0.125641E+007  0.765527E+011   5783.34       0.666676E+007  0.313625E+007
  1106.41       0.125641E+007  0.768056E+011   5779.52       0.665993E+007  0.313021E+007
  1153.85       0.125641E+007  0.770600E+011   5775.66       0.665304E+007  0.312411E+007
  1201.28       0.125641E+007  0.773157E+011   5771.79       0.664612E+007  0.311798E+007
  1248.72       0.125641E+007  0.775726E+011   5767.88       0.663915E+007  0.311180E+007
  1296.15       0.125641E+007  0.778305E+011   5763.96       0.663216E+007  0.310559E+007
  1343.59       0.125641E+007  0.780892E+011   5760.01       0.662513E+007  0.309934E+007
  1391.03       0.125641E+007  0.783488E+011   5756.05       0.661808E+007  0.309306E+007
  1438.46       0.125641E+007  0.786090E+011   5752.06       0.661100E+007  0.308674E+007
  1485.90       0.125641E+007  0.788699E+011   5748.06       0.660390E+007  0.308040E+007
  1533.33       0.125641E+007  0.791313E+011   5744.04       0.659678E+007  0.307403E+007
  1580.77       0.125641E+007  0.793932E+011   5740.01       0.658963E+007  0.306763E+007
  1628.21       0.125641E+007  0.796555E+011   5735.96       0.658247E+007  0.306121E+007
  1675.64       0.125641E+007  0.799181E+011   5731.90       0.657530E+007  0.305477E+007
  1723.08       0.125641E+007  0.801811E+011   5727.83       0.656810E+007  0.304830E+007
  1770.51       0.125641E+007  0.804444E+011   5723.74       0.656090E+007  0.304181E+007
  1817.95       0.125641E+007  0.807079E+011   5719.64       0.655368E+007  0.303530E+007
  1865.38       0.125641E+007  0.809717E+011   5715.53       0.654645E+007  0.302877E+007
  1912.82       0.125641E+007  0.812356E+011   5711.41       0.653921E+007  0.302221E+007
  1960.26       0.125641E+007  0.814997E+011   5707.28       0.653195E+007  0.301564E+007
  2007.69       0.125641E+007  0.817639E+011   5703.13       0.652469E+007  0.300905E+007
  2055.13       0.125641E+007  0.820283E+011   5698.98       0.651741E+007  0.300244E+007
  2102.56       0.125641E+007  0.822927E+011   5694.82       0.651013E+007  0.299582E+007
  2150.00       0.125641E+007  0.825572E+011   5690.64       0.650283E+007  0.298917E+007
  300.000       0.127436E+007  0.751345E+011   5849.63       0.681696E+007  0.323690E+007
  347.436       0.127436E+007  0.752619E+011   5847.76       0.681356E+007  0.323395E+007
  394.872       0.127436E+007  0.754116E+011   5845.57       0.680956E+007  0.323047E+007
  442.308       0.127436E+007  0.755799E+011   5843.09       0.680506E+007  0.322656E+007
  489.744       0.127436E+007  0.757636E+011   5840.39       0.680014E+007  0.322229E+007
  537.179       0.127436E+007  0.759598E+011   5837.49       0.679489E+007  0.321772E+007
  584.615       0.127436E+007  0.761664E+011   5834.45       0.678936E+007  0.321290E+007
  632.051       0.127436E+007  0.763814E+011   5831.27       0.678360E+007  0.320788E+007
  679.487       0.127436E+007  0.766036E+011   5827.98       0.677764E+007  0.320268E+007
  726.923       0.127436E+007  0.768317E+011   5824.60       0.677152E+007  0.319734E+007
  774.359       0.127436E+007  0.770649E+011   5821.13       0.676525E+007  0.319187E+007
  821.795       0.127436E+007  0.773022E+011   5817.60       0.675888E+007  0.318629E+007
  869.231       0.127436E+007  0.775431E+011   5814.01       0.675240E+007  0.318062E+007
  916.667       0.127436E+007  0.777871E+011   5810.37       0.674583E+007  0.317486E+007
  964.103       0.127436E+007  0.780338E+011   5806.68       0.673918E+007  0.316903E+007
  1011.54       0.127436E+007  0.782827E+011   5802.96       0.673247E+007  0.316314E+007
  1058.97       0.127436E+007  0.785336E+011   5799.19       0.672570E+007  0.315718E+007
  1106.41       0.127436E+007  0.787863E+011   5795.39       0.671888E+007  0.315117E+007
  1153.85       0.127436E+007  0.790404E+011   5791.57       0.671201E+007  0.314511E+007
  1201.28       0.127436E+007  0.792959E+011   5787.71       0.670510E+007  0.313901E+007
  1248.72       0.127436E+007  0.795525E+011   5783.83       0.669815E+007  0.313287E+007
  1296.15       0.127436E+007  0.798101E+011   5779.93       0.669117E+007  0.312669E+007
  1343.59       0.127436E+007  0.800687E+011   5776.01       0.668416E+007  0.312047E+007
  1391.03       0.127436E+007  0.803280E+011   5772.07       0.667712E+007  0.311422E+007
  1438.46       0.127436E+007  0.805880E+011   5768.11       0.667006E+007  0.310795E+007
  1485.90       0.127436E+007  0.808487E+011   5764.13       0.666297E+007  0.310164E+007
  1533.33       0.127436E+007  0.811099E+011   5760.14       0.665587E+007  0.309530E+007
  1580.77       0.127436E+007  0.813715E+011   5756.13       0.664874E+007  0.308894E+007
  1628.21       0.127436E+007  0.816336E+011   5752.11       0.664159E+007  0.308256E+007
  1675.64       0.127436E+007  0.818961E+011   5748.07       0.663443E+007  0.307615E+007
  1723.08       0.127436E+007  0.821589E+011   5744.02       0.662726E+007  0.306971E+007
  1770.51       0.127436E+007  0.824220E+011   5739.96       0.662006E+007  0.306326E+007
  1817.95       0.127436E+007  0.826853E+011   5735.88       0.661286E+007  0.305678E+007
  1865.38       0.127436E+007  0.829489E+011   5731.80       0.660564E+007  0.305029E+007
  1912.82       0.127436E+007  0.832126E+011   5727.70       0.659841E+007  0.304377E+007
  1960.26       0.127436E+007  0.834766E+011   5723.60       0.659117E+007  0.303723E+007
  2007.69       0.127436E+007  0.837406E+011   5719.48       0.658392E+007  0.303068E+007
  2055.13       0.127436E+007  0.840048E+011   5715.35       0.657666E+007  0.302411E+007
  2102.56       0.127436E+007  0.842690E+011   5711.21       0.656939E+007  0.301752E+007
  2150.00       0.127436E+007  0.845334E+011   5707.07       0.656212E+007  0.301091E+007
  300.000       0.129231E+007  0.771263E+011   5865.03       0.687552E+007  0.325723E+007
  347.436       0.129231E+007  0.772529E+011   5863.18       0.687214E+007  0.325430E+007
  394.872       0.129231E+007  0.774020E+011   5861.00       0.686816E+007  0.325085E+007
  442.308       0.129231E+007  0.775697E+011   5858.55       0.686368E+007  0.324697E+007
  489.744       0.129231E+007  0.777528E+011   5855.87       0.685879E+007  0.324273E+007
  537.179       0.129231E+007  0.779484E+011   5853.00       0.685356E+007  0.323819E+007
  584.615       0.129231E+007  0.781545E+011   5849.97       0.684805E+007  0.323341E+007
  632.051       0.129231E+007  0.783691E+011   5846.81       0.684231E+007  0.322842E+007
  679.487       0.129231E+007  0.785909E+011   5843.55       0.683637E+007  0.322326E+007
  726.923       0.129231E+007  0.788186E+011   5840.19       0.683026E+007  0.321795E+007
  774.359       0.129231E+007  0.790513E+011   5836.75       0.682402E+007  0.321251E+007
  821.795       0.129231E+007  0.792883E+011   5833.24       0.681766E+007  0.320697E+007
  869.231       0.129231E+007  0.795289E+011   5829.68       0.681119E+007  0.320133E+007
  916.667       0.129231E+007  0.797726E+011   5826.06       0.680464E+007  0.319560E+007
  964.103       0.129231E+007  0.800189E+011   5822.39       0.679801E+007  0.318980E+007
  1011.54       0.129231E+007  0.802676E+011   5818.69       0.679132E+007  0.318394E+007
  1058.97       0.129231E+007  0.805182E+011   5814.95       0.678456E+007  0.317802E+007
  1106.41       0.129231E+007  0.807706E+011   5811.17       0.677776E+007  0.317204E+007
  1153.85       0.129231E+007  0.810245E+011   5807.37       0.677090E+007  0.316602E+007
  1201.28       0.129231E+007  0.812797E+011   5803.54       0.676401E+007  0.315995E+007
  1248.72       0.129231E+007  0.815361E+011   5799.68       0.675708E+007  0.315384E+007
  1296.15       0.129231E+007  0.817935E+011   5795.80       0.675011E+007  0.314769E+007
  1343.59       0.129231E+007  0.820518E+011   5791.90       0.674312E+007  0.314151E+007
  1391.03       0.129231E+007  0.823110E+011   5787.99       0.673609E+007  0.313530E+007
  1438.46       0.129231E+007  0.825708E+011   5784.05       0.672904E+007  0.312905E+007
  1485.90       0.129231E+007  0.828312E+011   5780.10       0.672197E+007  0.312278E+007
  1533.33       0.129231E+007  0.830922E+011   5776.13       0.671488E+007  0.311648E+007
  1580.77       0.129231E+007  0.833537E+011   5772.14       0.670777E+007  0.311015E+007
  1628.21       0.129231E+007  0.836156E+011   5768.15       0.670064E+007  0.310380E+007
  1675.64       0.129231E+007  0.838779E+011   5764.13       0.669349E+007  0.309742E+007
  1723.08       0.129231E+007  0.841405E+011   5760.11       0.668633E+007  0.309102E+007
  1770.51       0.129231E+007  0.844034E+011   5756.07       0.667915E+007  0.308460E+007
  1817.95       0.129231E+007  0.846666E+011   5752.02       0.667196E+007  0.307816E+007
  1865.38       0.129231E+007  0.849300E+011   5747.96       0.666476E+007  0.307170E+007
  1912.82       0.129231E+007  0.851935E+011   5743.89       0.665754E+007  0.306522E+007
  1960.26       0.129231E+007  0.854573E+011   5739.81       0.665032E+007  0.305872E+007
  2007.69       0.129231E+007  0.857211E+011   5735.71       0.664308E+007  0.305220E+007
  2055.13       0.129231E+007  0.859851E+011   5731.61       0.663584E+007  0.304566E+007
  2102.56       0.129231E+007  0.862492E+011   5727.50       0.662858E+007  0.303911E+007
  2150.00       0.129231E+007  0.865134E+011   5723.38       0.662132E+007  0.303254E+007
  300.000       0.131026E+007  0.791215E+011   5880.34       0.693401E+007  0.327746E+007
  347.436       0.131026E+007  0.792475E+011   5878.51       0.693066E+007  0.327456E+007
  394.872       0.131026E+007  0.793960E+011   5876.35       0.692670E+007  0.327114E+007
  442.308       0.131026E+007  0.795631E+011   5873.91       0.692224E+007  0.326729E+007
  489.744       0.131026E+007  0.797455E+011   5871.25       0.691737E+007  0.326308E+007
  537.179       0.131026E+007  0.799407E+011   5868.41       0.691216E+007  0.325858E+007
  584.615       0.131026E+007  0.801462E+011   5865.40       0.690667E+007  0.325383E+007
  632.051       0.131026E+007  0.803604E+011   5862.27       0.690094E+007  0.324887E+007
  679.487       0.131026E+007  0.805817E+011   5859.02       0.689502E+007  0.324374E+007
  726.923       0.131026E+007  0.808090E+011   5855.69       0.688894E+007  0.323847E+007
  774.359       0.131026E+007  0.810414E+011   5852.27       0.688271E+007  0.323306E+007
  821.795       0.131026E+007  0.812780E+011   5848.79       0.687637E+007  0.322755E+007
  869.231       0.131026E+007  0.815183E+011   5845.24       0.686992E+007  0.322194E+007
  916.667       0.131026E+007  0.817617E+011   5841.65       0.686339E+007  0.321625E+007
  964.103       0.131026E+007  0.820077E+011   5838.00       0.685677E+007  0.321048E+007
  1011.54       0.131026E+007  0.822561E+011   5834.32       0.685009E+007  0.320465E+007
  1058.97       0.131026E+007  0.825065E+011   5830.60       0.684336E+007  0.319876E+007
  1106.41       0.131026E+007  0.827586E+011   5826.85       0.683656E+007  0.319282E+007
  1153.85       0.131026E+007  0.830123E+011   5823.07       0.682973E+007  0.318683E+007
  1201.28       0.131026E+007  0.832673E+011   5819.26       0.682285E+007  0.318079E+007
  1248.72       0.131026E+007  0.835234E+011   5815.43       0.681593E+007  0.317472E+007
  1296.15       0.131026E+007  0.837806E+011   5811.58       0.680898E+007  0.316860E+007
  1343.59       0.131026E+007  0.840387E+011   5807.70       0.680200E+007  0.316245E+007
  1391.03       0.131026E+007  0.842976E+011   5803.81       0.679499E+007  0.315627E+007
  1438.46       0.131026E+007  0.845572E+011   5799.89       0.678795E+007  0.315006E+007
  1485.90       0.131026E+007  0.848175E+011   5795.96       0.678089E+007  0.314382E+007
  1533.33       0.131026E+007  0.850783E+011   5792.02       0.677382E+007  0.313755E+007
  1580.77       0.131026E+007  0.853396E+011   5788.06       0.676672E+007  0.313126E+007
  1628.21       0.131026E+007  0.856013E+011   5784.08       0.675960E+007  0.312494E+007
  1675.64       0.131026E+007  0.858634E+011   5780.09       0.675247E+007  0.311860E+007
  1723.08       0.131026E+007  0.861259E+011   5776.09       0.674532E+007  0.311224E+007
  1770.51       0.131026E+007  0.863886E+011   5772.08       0.673816E+007  0.310585E+007
  1817.95       0.131026E+007  0.866516E+011   5768.05       0.673098E+007  0.309944E+007
  1865.38       0.131026E+007  0.869148E+011   5764.02       0.672380E+007  0.309302E+007
  1912.82       0.131026E+007  0.871782E+011   5759.97       0.671660E+007  0.308657E+007
  1960.26       0.131026E+007  0.874418E+011   5755.91       0.670938E+007  0.308011E+007
  2007.69       0.131026E+007  0.877055E+011   5751.85       0.670216E+007  0.307362E+007
  2055.13       0.131026E+007  0.879693E+011   5747.77       0.669493E+007  0.306712E+007
  2102.56       0.131026E+007  0.882333E+011   5743.68       0.668769E+007  0.306060E+007
  2150.00       0.131026E+007  0.884973E+011   5739.58       0.668044E+007  0.305406E+007
  300.000       0.132821E+007  0.811203E+011   5895.55       0.699244E+007  0.329761E+007
  347.436       0.132821E+007  0.812457E+011   5893.74       0.698910E+007  0.329474E+007
  394.872       0.132821E+007  0.813934E+011   5891.60       0.698517E+007  0.329135E+007
  442.308       0.132821E+007  0.815599E+011   5889.19       0.698073E+007  0.328753E+007
  489.744       0.132821E+007  0.817418E+011   5886.55       0.697588E+007  0.328335E+007
  537.179       0.132821E+007  0.819364E+011   5883.72       0.697069E+007  0.327888E+007
  584.615       0.132821E+007  0.821415E+011   5880.74       0.696522E+007  0.327416E+007
  632.051       0.132821E+007  0.823552E+011   5877.63       0.695951E+007  0.326924E+007
  679.487       0.132821E+007  0.825761E+011   5874.41       0.695361E+007  0.326414E+007
  726.923       0.132821E+007  0.828030E+011   5871.09       0.694754E+007  0.325889E+007
  774.359       0.132821E+007  0.830350E+011   5867.70       0.694134E+007  0.325352E+007
  821.795       0.132821E+007  0.832713E+011   5864.24       0.693501E+007  0.324804E+007
  869.231       0.132821E+007  0.835113E+011   5860.71       0.692858E+007  0.324246E+007
  916.667       0.132821E+007  0.837544E+011   5857.14       0.692206E+007  0.323680E+007
  964.103       0.132821E+007  0.840001E+011   5853.52       0.691546E+007  0.323107E+007
  1011.54       0.132821E+007  0.842482E+011   5849.86       0.690880E+007  0.322527E+007
  1058.97       0.132821E+007  0.844984E+011   5846.16       0.690207E+007  0.321941E+007
  1106.41       0.132821E+007  0.847502E+011   5842.44       0.689530E+007  0.321350E+007
  1153.85       0.132821E+007  0.850037E+011   5838.68       0.688847E+007  0.320754E+007
  1201.28       0.132821E+007  0.852584E+011   5834.89       0.688161E+007  0.320154E+007
  1248.72       0.132821E+007  0.855144E+011   5831.08       0.687471E+007  0.319550E+007
  1296.15       0.132821E+007  0.857713E+011   5827.25       0.686777E+007  0.318942E+007
  1343.59       0.132821E+007  0.860293E+011   5823.40       0.686080E+007  0.318330E+007
  1391.03       0.132821E+007  0.862880E+011   5819.53       0.685381E+007  0.317715E+007
  1438.46       0.132821E+007  0.865474E+011   5815.64       0.684679E+007  0.317097E+007
  1485.90       0.132821E+007  0.868074E+011   5811.73       0.683974E+007  0.316477E+007
  1533.33       0.132821E+007  0.870681E+011   5807.81       0.683268E+007  0.315853E+007
  1580.77       0.132821E+007  0.873292E+011   5803.87       0.682560E+007  0.315227E+007
  1628.21       0.132821E+007  0.875907E+011   5799.92       0.681849E+007  0.314599E+007
  1675.64       0.132821E+007  0.878527E+011   5795.95       0.681138E+007  0.313968E+007
  1723.08       0.132821E+007  0.881149E+011   5791.98       0.680424E+007  0.313335E+007
  1770.51       0.132821E+007  0.883775E+011   5787.99       0.679709E+007  0.312700E+007
  1817.95       0.132821E+007  0.886403E+011   5783.99       0.678993E+007  0.312062E+007
  1865.38       0.132821E+007  0.889034E+011   5779.97       0.678276E+007  0.311423E+007
  1912.82       0.132821E+007  0.891666E+011   5775.95       0.677557E+007  0.310782E+007
  1960.26       0.132821E+007  0.894300E+011   5771.92       0.676837E+007  0.310139E+007
  2007.69       0.132821E+007  0.896936E+011   5767.87       0.676117E+007  0.309494E+007
  2055.13       0.132821E+007  0.899573E+011   5763.82       0.675395E+007  0.308847E+007
  2102.56       0.132821E+007  0.902211E+011   5759.75       0.674672E+007  0.308199E+007
  2150.00       0.132821E+007  0.904849E+011   5755.68       0.673949E+007  0.307549E+007
  300.000       0.134615E+007  0.831225E+011   5910.68       0.705080E+007  0.331768E+007
  347.436       0.134615E+007  0.832472E+011   5908.89       0.704748E+007  0.331483E+007
  394.872       0.134615E+007  0.833944E+011   5906.77       0.704357E+007  0.331147E+007
  442.308       0.134615E+007  0.835602E+011   5904.37       0.703916E+007  0.330768E+007
  489.744       0.134615E+007  0.837416E+011   5901.76       0.703433E+007  0.330354E+007
  537.179       0.134615E+007  0.839357E+011   5898.95       0.702916E+007  0.329910E+007
  584.615       0.134615E+007  0.841403E+011   5895.99       0.702370E+007  0.329441E+007
  632.051       0.134615E+007  0.843535E+011   5892.90       0.701802E+007  0.328951E+007
  679.487       0.134615E+007  0.845740E+011   5889.70       0.701213E+007  0.328445E+007
  726.923       0.134615E+007  0.848006E+011   5886.41       0.700608E+007  0.327923E+007
  774.359       0.134615E+007  0.850322E+011   5883.03       0.699989E+007  0.327389E+007
  821.795       0.134615E+007  0.852682E+011   5879.59       0.699358E+007  0.326844E+007
  869.231       0.134615E+007  0.855078E+011   5876.09       0.698716E+007  0.326290E+007
  916.667       0.134615E+007  0.857506E+011   5872.54       0.698066E+007  0.325727E+007
  964.103       0.134615E+007  0.859961E+011   5868.94       0.697408E+007  0.325157E+007
  1011.54       0.134615E+007  0.862439E+011   5865.31       0.696743E+007  0.324580E+007
  1058.97       0.134615E+007  0.864938E+011   5861.63       0.696072E+007  0.323998E+007
  1106.41       0.134615E+007  0.867454E+011   5857.92       0.695396E+007  0.323410E+007
  1153.85       0.134615E+007  0.869986E+011   5854.19       0.694715E+007  0.322817E+007
  1201.28       0.134615E+007  0.872532E+011   5850.43       0.694030E+007  0.322220E+007
  1248.72       0.134615E+007  0.875089E+011   5846.64       0.693341E+007  0.321619E+007
  1296.15       0.134615E+007  0.877657E+011   5842.83       0.692649E+007  0.321014E+007
  1343.59       0.134615E+007  0.880234E+011   5839.00       0.691954E+007  0.320405E+007
  1391.03       0.134615E+007  0.882819E+011   5835.15       0.691256E+007  0.319794E+007
  1438.46       0.134615E+007  0.885411E+011   5831.28       0.690555E+007  0.319179E+007
  1485.90       0.134615E+007  0.888010E+011   5827.40       0.689852E+007  0.318562E+007
  1533.33       0.134615E+007  0.890615E+011   5823.50       0.689147E+007  0.317942E+007
  1580.77       0.134615E+007  0.893224E+011   5819.58       0.688440E+007  0.317319E+007
  1628.21       0.134615E+007  0.895838E+011   5815.66       0.687731E+007  0.316694E+007
  1675.64       0.134615E+007  0.898455E+011   5811.71       0.687021E+007  0.316066E+007
  1723.08       0.134615E+007  0.901077E+011   5807.76       0.686309E+007  0.315436E+007
  1770.51       0.134615E+007  0.903701E+011   5803.79       0.685595E+007  0.314805E+007
  1817.95       0.134615E+007  0.906327E+011   5799.82       0.684880E+007  0.314171E+007
  1865.38       0.134615E+007  0.908956E+011   5795.83       0.684164E+007  0.313535E+007
  1912.82       0.134615E+007  0.911587E+011   5791.83       0.683447E+007  0.312897E+007
  1960.26       0.134615E+007  0.914220E+011   5787.82       0.682729E+007  0.312257E+007
  2007.69       0.134615E+007  0.916854E+011   5783.80       0.682009E+007  0.311616E+007
  2055.13       0.134615E+007  0.919489E+011   5779.77       0.681289E+007  0.310972E+007
  2102.56       0.134615E+007  0.922126E+011   5775.73       0.680568E+007  0.310327E+007
  2150.00       0.134615E+007  0.924763E+011   5771.68       0.679846E+007  0.309681E+007
  300.000       0.136410E+007  0.851281E+011   5925.72       0.710909E+007  0.333767E+007
  347.436       0.136410E+007  0.852522E+011   5923.94       0.710580E+007  0.333484E+007
  394.872       0.136410E+007  0.853987E+011   5921.84       0.710190E+007  0.333151E+007
  442.308       0.136410E+007  0.855640E+011   5919.47       0.709751E+007  0.332775E+007
  489.744       0.136410E+007  0.857448E+011   5916.88       0.709270E+007  0.332364E+007
  537.179       0.136410E+007  0.859383E+011   5914.09       0.708755E+007  0.331923E+007
  584.615       0.136410E+007  0.861424E+011   5911.15       0.708212E+007  0.331457E+007
  632.051       0.136410E+007  0.863553E+011   5908.08       0.707645E+007  0.330971E+007
  679.487       0.136410E+007  0.865754E+011   5904.90       0.707058E+007  0.330467E+007
  726.923       0.136410E+007  0.868015E+011   5901.63       0.706455E+007  0.329949E+007
  774.359       0.136410E+007  0.870328E+011   5898.28       0.705837E+007  0.329418E+007
  821.795       0.136410E+007  0.872685E+011   5894.86       0.705208E+007  0.328876E+007
  869.231       0.136410E+007  0.875078E+011   5891.38       0.704568E+007  0.328325E+007
  916.667       0.136410E+007  0.877503E+011   5887.85       0.703919E+007  0.327765E+007
  964.103       0.136410E+007  0.879955E+011   5884.28       0.703263E+007  0.327198E+007
  1011.54       0.136410E+007  0.882431E+011   5880.66       0.702599E+007  0.326624E+007
  1058.97       0.136410E+007  0.884927E+011   5877.01       0.701930E+007  0.326045E+007
  1106.41       0.136410E+007  0.887441E+011   5873.32       0.701255E+007  0.325460E+007
  1153.85       0.136410E+007  0.889971E+011   5869.61       0.700576E+007  0.324870E+007
  1201.28       0.136410E+007  0.892514E+011   5865.87       0.699892E+007  0.324276E+007
  1248.72       0.136410E+007  0.895070E+011   5862.10       0.699205E+007  0.323678E+007
  1296.15       0.136410E+007  0.897635E+011   5858.31       0.698514E+007  0.323077E+007
  1343.59       0.136410E+007  0.900211E+011   5854.51       0.697820E+007  0.322472E+007
  1391.03       0.136410E+007  0.902794E+011   5850.68       0.697123E+007  0.321863E+007
  1438.46       0.136410E+007  0.905385E+011   5846.83       0.696424E+007  0.321252E+007
  1485.90       0.136410E+007  0.907982E+011   5842.97       0.695723E+007  0.320637E+007
  1533.33       0.136410E+007  0.910584E+011   5839.09       0.695019E+007  0.320020E+007
  1580.77       0.136410E+007  0.913192E+011   5835.20       0.694313E+007  0.319401E+007
  1628.21       0.136410E+007  0.915804E+011   5831.30       0.693606E+007  0.318779E+007
  1675.64       0.136410E+007  0.918420E+011   5827.38       0.692897E+007  0.318155E+007
  1723.08       0.136410E+007  0.921040E+011   5823.45       0.692186E+007  0.317528E+007
  1770.51       0.136410E+007  0.923662E+011   5819.50       0.691474E+007  0.316900E+007
  1817.95       0.136410E+007  0.926288E+011   5815.55       0.690760E+007  0.316269E+007
  1865.38       0.136410E+007  0.928915E+011   5811.58       0.690046E+007  0.315637E+007
  1912.82       0.136410E+007  0.931545E+011   5807.60       0.689330E+007  0.315002E+007
  1960.26       0.136410E+007  0.934176E+011   5803.62       0.688613E+007  0.314366E+007
  2007.69       0.136410E+007  0.936808E+011   5799.62       0.687895E+007  0.313728E+007
  2055.13       0.136410E+007  0.939442E+011   5795.61       0.687176E+007  0.313088E+007
  2102.56       0.136410E+007  0.942077E+011   5791.60       0.686456E+007  0.312446E+007
  2150.00       0.136410E+007  0.944713E+011   5787.57       0.685735E+007  0.311803E+007
  300.000       0.138205E+007  0.871370E+011   5940.68       0.716732E+007  0.335757E+007
  347.436       0.138205E+007  0.872605E+011   5938.92       0.716405E+007  0.335477E+007
  394.872       0.138205E+007  0.874064E+011   5936.84       0.716018E+007  0.335147E+007
  442.308       0.138205E+007  0.875711E+011   5934.48       0.715580E+007  0.334774E+007
  489.744       0.138205E+007  0.877513E+011   5931.91       0.715102E+007  0.334365E+007
  537.179       0.138205E+007  0.879444E+011   5929.14       0.714588E+007  0.333927E+007
  584.615       0.138205E+007  0.881480E+011   5926.22       0.714047E+007  0.333464E+007
  632.051       0.138205E+007  0.883604E+011   5923.17       0.713482E+007  0.332981E+007
  679.487       0.138205E+007  0.885801E+011   5920.02       0.712897E+007  0.332481E+007
  726.923       0.138205E+007  0.888059E+011   5916.77       0.712295E+007  0.331965E+007
  774.359       0.138205E+007  0.890369E+011   5913.44       0.711679E+007  0.331438E+007
  821.795       0.138205E+007  0.892722E+011   5910.04       0.711051E+007  0.330899E+007
  869.231       0.138205E+007  0.895112E+011   5906.58       0.710413E+007  0.330350E+007
  916.667       0.138205E+007  0.897534E+011   5903.07       0.709766E+007  0.329794E+007
  964.103       0.138205E+007  0.899984E+011   5899.52       0.709111E+007  0.329230E+007
  1011.54       0.138205E+007  0.902457E+011   5895.92       0.708449E+007  0.328659E+007
  1058.97       0.138205E+007  0.904951E+011   5892.29       0.707781E+007  0.328083E+007
  1106.41       0.138205E+007  0.907463E+011   5888.63       0.707108E+007  0.327501E+007
  1153.85       0.138205E+007  0.909991E+011   5884.93       0.706430E+007  0.326915E+007
  1201.28       0.138205E+007  0.912532E+011   5881.22       0.705747E+007  0.326324E+007
  1248.72       0.138205E+007  0.915085E+011   5877.47       0.705061E+007  0.325729E+007
  1296.15       0.138205E+007  0.917649E+011   5873.71       0.704372E+007  0.325131E+007
  1343.59       0.138205E+007  0.920222E+011   5869.92       0.703679E+007  0.324529E+007
  1391.03       0.138205E+007  0.922804E+011   5866.11       0.702984E+007  0.323923E+007
  1438.46       0.138205E+007  0.925393E+011   5862.29       0.702286E+007  0.323315E+007
  1485.90       0.138205E+007  0.927988E+011   5858.45       0.701586E+007  0.322704E+007
  1533.33       0.138205E+007  0.930589E+011   5854.60       0.700884E+007  0.322090E+007
  1580.77       0.138205E+007  0.933195E+011   5850.73       0.700179E+007  0.321474E+007
  1628.21       0.138205E+007  0.935806E+011   5846.84       0.699473E+007  0.320855E+007
  1675.64       0.138205E+007  0.938420E+011   5842.94       0.698765E+007  0.320234E+007
  1723.08       0.138205E+007  0.941038E+011   5839.04       0.698056E+007  0.319611E+007
  1770.51       0.138205E+007  0.943660E+011   5835.11       0.697345E+007  0.318986E+007
  1817.95       0.138205E+007  0.946283E+011   5831.18       0.696633E+007  0.318358E+007
  1865.38       0.138205E+007  0.948909E+011   5827.24       0.695920E+007  0.317729E+007
  1912.82       0.138205E+007  0.951538E+011   5823.28       0.695205E+007  0.317098E+007
  1960.26       0.138205E+007  0.954167E+011   5819.32       0.694489E+007  0.316465E+007
  2007.69       0.138205E+007  0.956799E+011   5815.34       0.693773E+007  0.315830E+007
  2055.13       0.138205E+007  0.959431E+011   5811.36       0.693055E+007  0.315193E+007
  2102.56       0.138205E+007  0.962065E+011   5807.37       0.692336E+007  0.314555E+007
  2150.00       0.138205E+007  0.964700E+011   5803.36       0.691617E+007  0.313915E+007
  300.000       0.140000E+007  0.891493E+011   5955.55       0.722549E+007  0.337739E+007
  347.436       0.140000E+007  0.892721E+011   5953.81       0.722223E+007  0.337462E+007
  394.872       0.140000E+007  0.894174E+011   5951.74       0.721838E+007  0.337134E+007
  442.308       0.140000E+007  0.895815E+011   5949.41       0.721403E+007  0.336764E+007
  489.744       0.140000E+007  0.897612E+011   5946.85       0.720926E+007  0.336358E+007
  537.179       0.140000E+007  0.899538E+011   5944.11       0.720415E+007  0.335923E+007
  584.615       0.140000E+007  0.901570E+011   5941.21       0.719875E+007  0.335464E+007
  632.051       0.140000E+007  0.903689E+011   5938.18       0.719312E+007  0.334983E+007
  679.487       0.140000E+007  0.905882E+011   5935.04       0.718729E+007  0.334486E+007
  726.923       0.140000E+007  0.908137E+011   5931.81       0.718129E+007  0.333974E+007
  774.359       0.140000E+007  0.910443E+011   5928.51       0.717515E+007  0.333449E+007
  821.795       0.140000E+007  0.912793E+011   5925.13       0.716888E+007  0.332913E+007
  869.231       0.140000E+007  0.915180E+011   5921.69       0.716251E+007  0.332368E+007
  916.667       0.140000E+007  0.917600E+011   5918.20       0.715606E+007  0.331814E+007
  964.103       0.140000E+007  0.920047E+011   5914.67       0.714952E+007  0.331253E+007
  1011.54       0.140000E+007  0.922518E+011   5911.10       0.714292E+007  0.330686E+007
  1058.97       0.140000E+007  0.925009E+011   5907.49       0.713625E+007  0.330113E+007
  1106.41       0.140000E+007  0.927519E+011   5903.84       0.712953E+007  0.329534E+007
  1153.85       0.140000E+007  0.930044E+011   5900.17       0.712277E+007  0.328951E+007
  1201.28       0.140000E+007  0.932584E+011   5896.47       0.711596E+007  0.328363E+007
  1248.72       0.140000E+007  0.935135E+011   5892.75       0.710911E+007  0.327771E+007
  1296.15       0.140000E+007  0.937697E+011   5889.01       0.710223E+007  0.327176E+007
  1343.59       0.140000E+007  0.940268E+011   5885.24       0.709532E+007  0.326577E+007
  1391.03       0.140000E+007  0.942848E+011   5881.46       0.708838E+007  0.325974E+007
  1438.46       0.140000E+007  0.945436E+011   5877.65       0.708141E+007  0.325369E+007
  1485.90       0.140000E+007  0.948029E+011   5873.84       0.707442E+007  0.324761E+007
  1533.33       0.140000E+007  0.950629E+011   5870.00       0.706741E+007  0.324151E+007
  1580.77       0.140000E+007  0.953233E+011   5866.15       0.706038E+007  0.323537E+007
  1628.21       0.140000E+007  0.955842E+011   5862.29       0.705333E+007  0.322922E+007
  1675.64       0.140000E+007  0.958456E+011   5858.42       0.704627E+007  0.322304E+007
  1723.08       0.140000E+007  0.961072E+011   5854.53       0.703919E+007  0.321684E+007
  1770.51       0.140000E+007  0.963692E+011   5850.63       0.703209E+007  0.321062E+007
  1817.95       0.140000E+007  0.966314E+011   5846.72       0.702499E+007  0.320438E+007
  1865.38       0.140000E+007  0.968939E+011   5842.80       0.701786E+007  0.319812E+007
  1912.82       0.140000E+007  0.971566E+011   5838.87       0.701073E+007  0.319184E+007
  1960.26       0.140000E+007  0.974194E+011   5834.92       0.700359E+007  0.318554E+007
  2007.69       0.140000E+007  0.976825E+011   5830.97       0.699643E+007  0.317922E+007
  2055.13       0.140000E+007  0.979456E+011   5827.01       0.698927E+007  0.317289E+007
  2102.56       0.140000E+007  0.982088E+011   5823.04       0.698210E+007  0.316654E+007
  2150.00       0.140000E+007  0.984721E+011   5819.06       0.697491E+007  0.316017E+007
