|6.6.6
primRef_quadrant4_1.tab                                                                             
           2
T(K)    
   1533.3000000000000     
   31.625641025641023     
          40
P(bar)  
   466667.00000000000     
   11965.820512820514     
          40
           6
T(K)           P(bar)         mode           rho,kg/m3      Ks,bar         Gs,bar        
  1533.30        466667.      -0.385942E+010   4859.93       0.418904E+007  0.204043E+007
  1564.93        466667.      -0.367419E+010   4856.97       0.418353E+007  0.203380E+007
  1596.55        466667.      -0.348883E+010   4854.00       0.417801E+007  0.202716E+007
  1628.18        466667.      -0.330335E+010   4851.03       0.417248E+007  0.202050E+007
  1659.80        466667.      -0.311774E+010   4848.04       0.416694E+007  0.201382E+007
  1691.43        466667.      -0.293203E+010   4845.05       0.416139E+007  0.200714E+007
  1723.05        466667.      -0.274622E+010   4842.05       0.415583E+007  0.200044E+007
  1754.68        466667.      -0.256032E+010   4839.05       0.415026E+007  0.199372E+007
  1786.31        466667.      -0.237433E+010   4836.04       0.414468E+007  0.198699E+007
  1817.93        466667.      -0.218827E+010   4833.02       0.413909E+007  0.198026E+007
  1849.56        466667.      -0.200213E+010   4829.99       0.413350E+007  0.197350E+007
  1881.18        466667.      -0.181593E+010   4826.96       0.412789E+007  0.196674E+007
  1912.81        466667.      -0.162967E+010   4823.92       0.412228E+007  0.195996E+007
  1944.43        466667.      -0.144335E+010   4820.87       0.411666E+007  0.195317E+007
  1976.06        466667.      -0.125699E+010   4817.82       0.411103E+007  0.194637E+007
  2007.68        466667.      -0.107058E+010   4814.76       0.410539E+007  0.193956E+007
  2039.31        466667.      -0.884130E+009   4811.69       0.409974E+007  0.193273E+007
  2070.94        466667.      -0.697643E+009   4808.62       0.409409E+007  0.192590E+007
  2102.56        466667.      -0.511122E+009   4805.54       0.408843E+007  0.191905E+007
  2134.19        466667.      -0.324572E+009   4802.46       0.408276E+007  0.191219E+007
  2165.81        466667.      -0.137995E+009   4799.36       0.407708E+007  0.190532E+007
  2197.44        466667.       0.486055E+008   4796.27       0.407139E+007  0.189843E+007
  2229.06        466667.       0.235226E+009   4793.16       0.406570E+007  0.189154E+007
  2260.69        466667.       0.421865E+009   4790.05       0.405999E+007  0.188463E+007
  2292.32        466667.       0.608519E+009   4786.93       0.405429E+007  0.187772E+007
  2323.94        466667.       0.795186E+009   4783.81       0.404855E+007  0.187079E+007
  2355.57        466667.       0.981864E+009   4780.67       0.404285E+007  0.186385E+007
  2387.19        466667.       0.116855E+010   4777.54       0.403712E+007  0.185689E+007
  2418.82        466667.       0.135524E+010   4774.39       0.403138E+007  0.184993E+007
  2450.44        466667.       0.154194E+010   4771.24       0.402563E+007  0.184296E+007
  2482.07        466667.       0.172864E+010   4768.09       0.401988E+007  0.183597E+007
  2513.69        466667.       0.191534E+010   4764.92       0.401411E+007  0.182897E+007
  2545.32        466667.       0.210204E+010   4761.75       0.400834E+007  0.182196E+007
  2576.95        466667.       0.228874E+010   4758.58       0.400257E+007  0.181494E+007
  2608.57        466667.       0.247543E+010   4755.39       0.399678E+007  0.180791E+007
  2640.20        466667.       0.266212E+010   4752.20       0.399099E+007  0.180087E+007
  2671.82        466667.       0.284909E+010   4748.96       0.398492E+007  0.179391E+007
  2703.45        466667.       0.303645E+010   4745.63       0.397847E+007  0.178709E+007
  2735.07        466667.       0.322374E+010   4742.30       0.397208E+007  0.178024E+007
  2766.70        466667.       0.341097E+010   4738.98       0.396560E+007  0.177337E+007
  1533.30        478633.      -0.270766E+010   4874.33       0.423408E+007  0.205577E+007
  1564.93        478633.      -0.252275E+010   4871.39       0.422860E+007  0.204917E+007
  1596.55        478633.      -0.233770E+010   4868.44       0.422310E+007  0.204255E+007
  1628.18        478633.      -0.215252E+010   4865.49       0.421759E+007  0.203592E+007
  1659.80        478633.      -0.196723E+010   4862.53       0.421207E+007  0.202928E+007
  1691.43        478633.      -0.178184E+010   4859.57       0.420654E+007  0.202263E+007
  1723.05        478633.      -0.159634E+010   4856.59       0.420100E+007  0.201596E+007
  1754.68        478633.      -0.141075E+010   4853.61       0.419546E+007  0.200928E+007
  1786.31        478633.      -0.122508E+010   4850.62       0.418990E+007  0.200258E+007
  1817.93        478633.      -0.103933E+010   4847.63       0.418434E+007  0.199587E+007
  1849.56        478633.      -0.853515E+009   4844.63       0.417877E+007  0.198915E+007
  1881.18        478633.      -0.667633E+009   4841.62       0.417318E+007  0.198242E+007
  1912.81        478633.      -0.481693E+009   4838.61       0.416760E+007  0.197568E+007
  1944.43        478633.      -0.295699E+009   4835.59       0.416203E+007  0.196892E+007
  1976.06        478633.      -0.109656E+009   4832.56       0.415640E+007  0.196215E+007
  2007.68        478633.       0.764312E+008   4829.53       0.415078E+007  0.195537E+007
  2039.31        478633.       0.262558E+009   4826.49       0.414516E+007  0.194858E+007
  2070.94        478633.       0.448720E+009   4823.44       0.413953E+007  0.194178E+007
  2102.56        478633.       0.634915E+009   4820.39       0.413389E+007  0.193497E+007
  2134.19        478633.       0.821138E+009   4817.33       0.412825E+007  0.192814E+007
  2165.81        478633.       0.100739E+010   4814.26       0.412260E+007  0.192130E+007
  2197.44        478633.       0.119366E+010   4811.19       0.411694E+007  0.191445E+007
  2229.06        478633.       0.137995E+010   4808.11       0.411127E+007  0.190759E+007
  2260.69        478633.       0.156625E+010   4805.03       0.410559E+007  0.190072E+007
  2292.32        478633.       0.175257E+010   4801.94       0.409991E+007  0.189384E+007
  2323.94        478633.       0.193890E+010   4798.84       0.409422E+007  0.188695E+007
  2355.57        478633.       0.212524E+010   4795.73       0.408852E+007  0.188004E+007
  2387.19        478633.       0.231159E+010   4792.62       0.408282E+007  0.187313E+007
  2418.82        478633.       0.249794E+010   4789.51       0.407711E+007  0.186620E+007
  2450.44        478633.       0.268430E+010   4786.39       0.407139E+007  0.185926E+007
  2482.07        478633.       0.287066E+010   4783.26       0.406566E+007  0.185231E+007
  2513.69        478633.       0.305701E+010   4780.12       0.405992E+007  0.184535E+007
  2545.32        478633.       0.324337E+010   4776.98       0.405418E+007  0.183838E+007
  2576.95        478633.       0.342972E+010   4773.83       0.404843E+007  0.183140E+007
  2608.57        478633.       0.361606E+010   4770.68       0.404267E+007  0.182440E+007
  2640.20        478633.       0.380240E+010   4767.52       0.403691E+007  0.181740E+007
  2671.82        478633.       0.398873E+010   4764.35       0.403114E+007  0.181038E+007
  2703.45        478633.       0.417505E+010   4761.18       0.402536E+007  0.180335E+007
  2735.07        478633.       0.436136E+010   4758.00       0.401957E+007  0.179631E+007
  2766.70        478633.       0.454766E+010   4754.81       0.401377E+007  0.178926E+007
  1533.30        490599.      -0.155203E+010   4888.60       0.427903E+007  0.207100E+007
  1564.93        490599.      -0.136742E+010   4885.69       0.427356E+007  0.206443E+007
  1596.55        490599.      -0.118267E+010   4882.77       0.426809E+007  0.205784E+007
  1628.18        490599.      -0.997802E+009   4879.84       0.426260E+007  0.205125E+007
  1659.80        490599.      -0.812813E+009   4876.90       0.425710E+007  0.204463E+007
  1691.43        490599.      -0.627718E+009   4873.96       0.425160E+007  0.203801E+007
  1723.05        490599.      -0.442524E+009   4871.01       0.424608E+007  0.203137E+007
  1754.68        490599.      -0.257241E+009   4868.05       0.424056E+007  0.202472E+007
  1786.31        490599.      -0.718739E+008   4865.09       0.423503E+007  0.201806E+007
  1817.93        490599.       0.113569E+009   4862.12       0.422949E+007  0.201138E+007
  1849.56        490599.       0.299081E+009   4859.14       0.422394E+007  0.200469E+007
  1881.18        490599.       0.484656E+009   4856.16       0.421838E+007  0.199799E+007
  1912.81        490599.       0.670289E+009   4853.17       0.421282E+007  0.199128E+007
  1944.43        490599.       0.855975E+009   4850.18       0.420724E+007  0.198456E+007
  1976.06        490599.       0.104171E+010   4847.17       0.420166E+007  0.197782E+007
  2007.68        490599.       0.122749E+010   4844.17       0.419607E+007  0.197107E+007
  2039.31        490599.       0.141330E+010   4841.15       0.419047E+007  0.196431E+007
  2070.94        490599.       0.159915E+010   4838.13       0.418487E+007  0.195754E+007
  2102.56        490599.       0.178503E+010   4835.10       0.417926E+007  0.195076E+007
  2134.19        490599.       0.197094E+010   4832.07       0.417363E+007  0.194397E+007
  2165.81        490599.       0.215687E+010   4829.03       0.416801E+007  0.193717E+007
  2197.44        490599.       0.234283E+010   4825.98       0.416237E+007  0.193035E+007
  2229.06        490599.       0.252880E+010   4822.93       0.415673E+007  0.192353E+007
  2260.69        490599.       0.271479E+010   4819.87       0.415108E+007  0.191669E+007
  2292.32        490599.       0.290078E+010   4816.81       0.414542E+007  0.190984E+007
  2323.94        490599.       0.308679E+010   4813.74       0.413976E+007  0.190298E+007
  2355.57        490599.       0.327281E+010   4810.66       0.413408E+007  0.189611E+007
  2387.19        490599.       0.345883E+010   4807.58       0.412840E+007  0.188923E+007
  2418.82        490599.       0.364486E+010   4804.49       0.412272E+007  0.188234E+007
  2450.44        490599.       0.383089E+010   4801.39       0.411702E+007  0.187544E+007
  2482.07        490599.       0.401692E+010   4798.29       0.411132E+007  0.186852E+007
  2513.69        490599.       0.420294E+010   4795.18       0.410561E+007  0.186160E+007
  2545.32        490599.       0.438896E+010   4792.07       0.409990E+007  0.185466E+007
  2576.95        490599.       0.457498E+010   4788.95       0.409418E+007  0.184772E+007
  2608.57        490599.       0.476099E+010   4785.82       0.408841E+007  0.184076E+007
  2640.20        490599.       0.494699E+010   4782.69       0.408271E+007  0.183379E+007
  2671.82        490599.       0.513298E+010   4779.55       0.407696E+007  0.182681E+007
  2703.45        490599.       0.531896E+010   4776.41       0.407121E+007  0.181982E+007
  2735.07        490599.       0.550493E+010   4773.26       0.406545E+007  0.181282E+007
  2766.70        490599.       0.569088E+010   4770.10       0.405969E+007  0.180581E+007
  1533.30        502564.      -0.392613E+009   4902.76       0.432388E+007  0.208613E+007
  1564.93        502564.      -0.208294E+009   4899.87       0.431844E+007  0.207958E+007
  1596.55        502564.      -0.238386E+008   4896.97       0.431298E+007  0.207303E+007
  1628.18        502564.       0.160743E+009   4894.07       0.430752E+007  0.206646E+007
  1659.80        502564.       0.345440E+009   4891.16       0.430204E+007  0.205988E+007
  1691.43        502564.       0.530244E+009   4888.24       0.429656E+007  0.205328E+007
  1723.05        502564.       0.715146E+009   4885.31       0.429107E+007  0.204668E+007
  1754.68        502564.       0.900137E+009   4882.38       0.428557E+007  0.204006E+007
  1786.31        502564.       0.108521E+010   4879.44       0.428006E+007  0.203342E+007
  1817.93        502564.       0.127036E+010   4876.49       0.427454E+007  0.202678E+007
  1849.56        502564.       0.145558E+010   4873.54       0.426901E+007  0.202012E+007
  1881.18        502564.       0.164086E+010   4870.58       0.426348E+007  0.201345E+007
  1912.81        502564.       0.182620E+010   4867.61       0.425793E+007  0.200677E+007
  1944.43        502564.       0.201158E+010   4864.64       0.425238E+007  0.200008E+007
  1976.06        502564.       0.219702E+010   4861.67       0.424682E+007  0.199337E+007
  2007.68        502564.       0.238250E+010   4858.68       0.424126E+007  0.198666E+007
  2039.31        502564.       0.256802E+010   4855.69       0.423568E+007  0.197993E+007
  2070.94        502564.       0.275357E+010   4852.69       0.423010E+007  0.197319E+007
  2102.56        502564.       0.293915E+010   4849.69       0.422451E+007  0.196645E+007
  2134.19        502564.       0.312475E+010   4846.68       0.421891E+007  0.195969E+007
  2165.81        502564.       0.331038E+010   4843.67       0.421331E+007  0.195291E+007
  2197.44        502564.       0.349603E+010   4840.65       0.420770E+007  0.194613E+007
  2229.06        502564.       0.368170E+010   4837.62       0.420208E+007  0.193934E+007
  2260.69        502564.       0.386738E+010   4834.59       0.419645E+007  0.193254E+007
  2292.32        502564.       0.405307E+010   4831.55       0.419082E+007  0.192572E+007
  2323.94        502564.       0.423877E+010   4828.50       0.418518E+007  0.191890E+007
  2355.57        502564.       0.442447E+010   4825.45       0.417955E+007  0.191206E+007
  2387.19        502564.       0.461019E+010   4822.40       0.417388E+007  0.190521E+007
  2418.82        502564.       0.479590E+010   4819.33       0.416822E+007  0.189836E+007
  2450.44        502564.       0.498161E+010   4816.26       0.416255E+007  0.189149E+007
  2482.07        502564.       0.516732E+010   4813.19       0.415687E+007  0.188461E+007
  2513.69        502564.       0.535303E+010   4810.11       0.415119E+007  0.187772E+007
  2545.32        502564.       0.553873E+010   4807.02       0.414550E+007  0.187082E+007
  2576.95        502564.       0.572443E+010   4803.93       0.413980E+007  0.186391E+007
  2608.57        502564.       0.591012E+010   4800.83       0.413410E+007  0.185699E+007
  2640.20        502564.       0.609580E+010   4797.73       0.412839E+007  0.185006E+007
  2671.82        502564.       0.628146E+010   4794.61       0.412267E+007  0.184311E+007
  2703.45        502564.       0.646712E+010   4791.50       0.411690E+007  0.183616E+007
  2735.07        502564.       0.665276E+010   4788.37       0.411121E+007  0.182920E+007
  2766.70        502564.       0.683838E+010   4785.24       0.410546E+007  0.182222E+007
  1533.30        514530.       0.770520E+009   4916.81       0.436865E+007  0.210115E+007
  1564.93        514530.       0.954559E+009   4913.94       0.436322E+007  0.209464E+007
  1596.55        514530.       0.113873E+010   4911.07       0.435779E+007  0.208811E+007
  1628.18        514530.       0.132304E+010   4908.18       0.435234E+007  0.208157E+007
  1659.80        514530.       0.150745E+010   4905.29       0.434689E+007  0.207502E+007
  1691.43        514530.       0.169198E+010   4902.40       0.434143E+007  0.206846E+007
  1723.05        514530.       0.187660E+010   4899.49       0.433595E+007  0.206188E+007
  1754.68        514530.       0.206131E+010   4896.58       0.433047E+007  0.205529E+007
  1786.31        514530.       0.224610E+010   4893.67       0.432499E+007  0.204868E+007
  1817.93        514530.       0.243096E+010   4890.74       0.431949E+007  0.204207E+007
  1849.56        514530.       0.261590E+010   4887.82       0.431398E+007  0.203544E+007
  1881.18        514530.       0.280089E+010   4884.88       0.430847E+007  0.202880E+007
  1912.81        514530.       0.298595E+010   4881.94       0.430295E+007  0.202215E+007
  1944.43        514530.       0.317105E+010   4878.99       0.429742E+007  0.201549E+007
  1976.06        514530.       0.335620E+010   4876.04       0.429189E+007  0.200882E+007
  2007.68        514530.       0.354139E+010   4873.08       0.428634E+007  0.200213E+007
  2039.31        514530.       0.372662E+010   4870.11       0.428079E+007  0.199544E+007
  2070.94        514530.       0.391188E+010   4867.14       0.427523E+007  0.198873E+007
  2102.56        514530.       0.409717E+010   4864.16       0.426966E+007  0.198202E+007
  2134.19        514530.       0.428249E+010   4861.17       0.426409E+007  0.197529E+007
  2165.81        514530.       0.446783E+010   4858.18       0.425852E+007  0.196855E+007
  2197.44        514530.       0.465318E+010   4855.19       0.425292E+007  0.196180E+007
  2229.06        514530.       0.483856E+010   4852.19       0.424733E+007  0.195504E+007
  2260.69        514530.       0.502394E+010   4849.18       0.424172E+007  0.194827E+007
  2292.32        514530.       0.520934E+010   4846.16       0.423612E+007  0.194149E+007
  2323.94        514530.       0.539474E+010   4843.14       0.423050E+007  0.193469E+007
  2355.57        514530.       0.558015E+010   4840.12       0.422488E+007  0.192789E+007
  2387.19        514530.       0.576556E+010   4837.09       0.421927E+007  0.192108E+007
  2418.82        514530.       0.595097E+010   4834.05       0.421361E+007  0.191425E+007
  2450.44        514530.       0.613639E+010   4831.01       0.420797E+007  0.190742E+007
  2482.07        514530.       0.632179E+010   4827.96       0.420231E+007  0.190058E+007
  2513.69        514530.       0.650720E+010   4824.90       0.419666E+007  0.189372E+007
  2545.32        514530.       0.669259E+010   4821.84       0.419099E+007  0.188685E+007
  2576.95        514530.       0.687798E+010   4818.78       0.418532E+007  0.187998E+007
  2608.57        514530.       0.706336E+010   4815.70       0.417964E+007  0.187309E+007
  2640.20        514530.       0.724873E+010   4812.63       0.417396E+007  0.186620E+007
  2671.82        514530.       0.743409E+010   4809.54       0.416826E+007  0.185929E+007
  2703.45        514530.       0.761943E+010   4806.45       0.416257E+007  0.185237E+007
  2735.07        514530.       0.780475E+010   4803.36       0.415686E+007  0.184544E+007
  2766.70        514530.       0.799006E+010   4800.25       0.415134E+007  0.183850E+007
  1533.30        526496.       0.193730E+010   4930.75       0.441332E+007  0.211608E+007
  1564.93        526496.       0.212107E+010   4927.90       0.440791E+007  0.210959E+007
  1596.55        526496.       0.230498E+010   4925.05       0.440250E+007  0.210310E+007
  1628.18        526496.       0.248901E+010   4922.19       0.439708E+007  0.209659E+007
  1659.80        526496.       0.267315E+010   4919.32       0.439164E+007  0.209006E+007
  1691.43        526496.       0.285741E+010   4916.45       0.438620E+007  0.208352E+007
  1723.05        526496.       0.304175E+010   4913.56       0.438075E+007  0.207698E+007
  1754.68        526496.       0.322619E+010   4910.68       0.437529E+007  0.207041E+007
  1786.31        526496.       0.341071E+010   4907.78       0.436982E+007  0.206384E+007
  1817.93        526496.       0.359531E+010   4904.88       0.436435E+007  0.205725E+007
  1849.56        526496.       0.377997E+010   4901.98       0.435886E+007  0.205066E+007
  1881.18        526496.       0.396469E+010   4899.06       0.435337E+007  0.204405E+007
  1912.81        526496.       0.414947E+010   4896.14       0.434787E+007  0.203743E+007
  1944.43        526496.       0.433430E+010   4893.22       0.434237E+007  0.203080E+007
  1976.06        526496.       0.451917E+010   4890.29       0.433681E+007  0.202415E+007
  2007.68        526496.       0.470409E+010   4887.35       0.433133E+007  0.201750E+007
  2039.31        526496.       0.488904E+010   4884.41       0.432580E+007  0.201084E+007
  2070.94        526496.       0.507403E+010   4881.46       0.432026E+007  0.200416E+007
  2102.56        526496.       0.525904E+010   4878.51       0.431472E+007  0.199747E+007
  2134.19        526496.       0.544407E+010   4875.55       0.430917E+007  0.199078E+007
  2165.81        526496.       0.562913E+010   4872.58       0.430361E+007  0.198407E+007
  2197.44        526496.       0.581421E+010   4869.61       0.429804E+007  0.197735E+007
  2229.06        526496.       0.599930E+010   4866.63       0.429247E+007  0.197062E+007
  2260.69        526496.       0.618440E+010   4863.65       0.428689E+007  0.196388E+007
  2292.32        526496.       0.636951E+010   4860.66       0.428131E+007  0.195713E+007
  2323.94        526496.       0.655463E+010   4857.66       0.427571E+007  0.195037E+007
  2355.57        526496.       0.673975E+010   4854.66       0.427011E+007  0.194360E+007
  2387.19        526496.       0.692488E+010   4851.65       0.426451E+007  0.193682E+007
  2418.82        526496.       0.711000E+010   4848.64       0.425889E+007  0.193003E+007
  2450.44        526496.       0.729512E+010   4845.62       0.425327E+007  0.192323E+007
  2482.07        526496.       0.748024E+010   4842.60       0.424765E+007  0.191642E+007
  2513.69        526496.       0.766535E+010   4839.57       0.424201E+007  0.190960E+007
  2545.32        526496.       0.785046E+010   4836.54       0.423637E+007  0.190277E+007
  2576.95        526496.       0.803555E+010   4833.49       0.423073E+007  0.189593E+007
  2608.57        526496.       0.822063E+010   4830.45       0.422507E+007  0.188907E+007
  2640.20        526496.       0.840570E+010   4827.40       0.421941E+007  0.188221E+007
  2671.82        526496.       0.859076E+010   4824.34       0.421375E+007  0.187534E+007
  2703.45        526496.       0.877580E+010   4821.27       0.420807E+007  0.186845E+007
  2735.07        526496.       0.896083E+010   4818.20       0.420239E+007  0.186156E+007
  2766.70        526496.       0.914584E+010   4815.13       0.419671E+007  0.185466E+007
  1533.30        538462.       0.310766E+010   4944.58       0.445790E+007  0.213091E+007
  1564.93        538462.       0.329117E+010   4941.75       0.445252E+007  0.212445E+007
  1596.55        538462.       0.347481E+010   4938.92       0.444712E+007  0.211798E+007
  1628.18        538462.       0.365859E+010   4936.08       0.444172E+007  0.211150E+007
  1659.80        538462.       0.384247E+010   4933.24       0.443631E+007  0.210500E+007
  1691.43        538462.       0.402646E+010   4930.38       0.443088E+007  0.209849E+007
  1723.05        538462.       0.421055E+010   4927.52       0.442543E+007  0.209197E+007
  1754.68        538462.       0.439473E+010   4924.66       0.442002E+007  0.208544E+007
  1786.31        538462.       0.457899E+010   4921.79       0.441457E+007  0.207890E+007
  1817.93        538462.       0.476332E+010   4918.91       0.440911E+007  0.207234E+007
  1849.56        538462.       0.494772E+010   4916.02       0.440365E+007  0.206577E+007
  1881.18        538462.       0.513218E+010   4913.13       0.439818E+007  0.205919E+007
  1912.81        538462.       0.531669E+010   4910.24       0.439270E+007  0.205260E+007
  1944.43        538462.       0.550126E+010   4907.33       0.438721E+007  0.204600E+007
  1976.06        538462.       0.568587E+010   4904.43       0.438172E+007  0.203938E+007
  2007.68        538462.       0.587052E+010   4901.51       0.437622E+007  0.203276E+007
  2039.31        538462.       0.605520E+010   4898.59       0.437071E+007  0.202613E+007
  2070.94        538462.       0.623992E+010   4895.67       0.436520E+007  0.201948E+007
  2102.56        538462.       0.642466E+010   4892.74       0.435967E+007  0.201282E+007
  2134.19        538462.       0.660943E+010   4889.80       0.435414E+007  0.200616E+007
  2165.81        538462.       0.679422E+010   4886.86       0.434861E+007  0.199948E+007
  2197.44        538462.       0.697903E+010   4883.91       0.434307E+007  0.199279E+007
  2229.06        538462.       0.716384E+010   4880.95       0.433752E+007  0.198610E+007
  2260.69        538462.       0.734867E+010   4877.99       0.433196E+007  0.197939E+007
  2292.32        538462.       0.753351E+010   4875.03       0.432640E+007  0.197267E+007
  2323.94        538462.       0.771836E+010   4872.06       0.432083E+007  0.196594E+007
  2355.57        538462.       0.790320E+010   4869.08       0.431525E+007  0.195920E+007
  2387.19        538462.       0.808805E+010   4866.10       0.430967E+007  0.195245E+007
  2418.82        538462.       0.827290E+010   4863.11       0.430408E+007  0.194570E+007
  2450.44        538462.       0.845774E+010   4860.12       0.429839E+007  0.193893E+007
  2482.07        538462.       0.864258E+010   4857.12       0.429288E+007  0.193215E+007
  2513.69        538462.       0.882741E+010   4854.11       0.428727E+007  0.192536E+007
  2545.32        538462.       0.901224E+010   4851.10       0.428165E+007  0.191856E+007
  2576.95        538462.       0.919705E+010   4848.09       0.427603E+007  0.191175E+007
  2608.57        538462.       0.938185E+010   4845.06       0.427040E+007  0.190493E+007
  2640.20        538462.       0.956663E+010   4842.04       0.426476E+007  0.189810E+007
  2671.82        538462.       0.975140E+010   4839.00       0.425912E+007  0.189126E+007
  2703.45        538462.       0.993616E+010   4835.97       0.425347E+007  0.188442E+007
  2735.07        538462.       0.101209E+011   4832.92       0.424776E+007  0.187756E+007
  2766.70        538462.       0.103056E+011   4829.87       0.424215E+007  0.187069E+007
  1533.30        550428.       0.428154E+010   4958.31       0.450240E+007  0.214564E+007
  1564.93        550428.       0.446479E+010   4955.50       0.449704E+007  0.213921E+007
  1596.55        550428.       0.464819E+010   4952.69       0.449166E+007  0.213277E+007
  1628.18        550428.       0.483171E+010   4949.87       0.448628E+007  0.212631E+007
  1659.80        550428.       0.501534E+010   4947.04       0.448088E+007  0.211985E+007
  1691.43        550428.       0.519908E+010   4944.21       0.447548E+007  0.211336E+007
  1723.05        550428.       0.538292E+010   4941.37       0.447007E+007  0.210687E+007
  1754.68        550428.       0.556684E+010   4938.53       0.446465E+007  0.210037E+007
  1786.31        550428.       0.575085E+010   4935.68       0.445922E+007  0.209385E+007
  1817.93        550428.       0.593493E+010   4932.82       0.445379E+007  0.208732E+007
  1849.56        550428.       0.611907E+010   4929.96       0.444834E+007  0.208078E+007
  1881.18        550428.       0.630328E+010   4927.09       0.444289E+007  0.207423E+007
  1912.81        550428.       0.648754E+010   4924.22       0.443744E+007  0.206767E+007
  1944.43        550428.       0.667185E+010   4921.34       0.443197E+007  0.206109E+007
  1976.06        550428.       0.685621E+010   4918.45       0.442650E+007  0.205451E+007
  2007.68        550428.       0.704060E+010   4915.56       0.442102E+007  0.204792E+007
  2039.31        550428.       0.722503E+010   4912.66       0.441553E+007  0.204131E+007
  2070.94        550428.       0.740949E+010   4909.76       0.441004E+007  0.203469E+007
  2102.56        550428.       0.759398E+010   4906.85       0.440453E+007  0.202807E+007
  2134.19        550428.       0.777849E+010   4903.94       0.439903E+007  0.202143E+007
  2165.81        550428.       0.796302E+010   4901.02       0.439351E+007  0.201478E+007
  2197.44        550428.       0.814756E+010   4898.09       0.438799E+007  0.200813E+007
  2229.06        550428.       0.833212E+010   4895.16       0.438246E+007  0.200146E+007
  2260.69        550428.       0.851669E+010   4892.22       0.437693E+007  0.199478E+007
  2292.32        550428.       0.870126E+010   4889.28       0.437139E+007  0.198810E+007
  2323.94        550428.       0.888585E+010   4886.33       0.436590E+007  0.198140E+007
  2355.57        550428.       0.907043E+010   4883.38       0.436028E+007  0.197469E+007
  2387.19        550428.       0.925501E+010   4880.42       0.435472E+007  0.196797E+007
  2418.82        550428.       0.943959E+010   4877.46       0.434915E+007  0.196125E+007
  2450.44        550428.       0.962417E+010   4874.49       0.434358E+007  0.195451E+007
  2482.07        550428.       0.980874E+010   4871.51       0.433801E+007  0.194776E+007
  2513.69        550428.       0.999330E+010   4868.53       0.433241E+007  0.194100E+007
  2545.32        550428.       0.101779E+011   4865.55       0.432682E+007  0.193424E+007
  2576.95        550428.       0.103624E+011   4862.55       0.432122E+007  0.192746E+007
  2608.57        550428.       0.105469E+011   4859.56       0.431562E+007  0.192068E+007
  2640.20        550428.       0.107314E+011   4856.55       0.431000E+007  0.191388E+007
  2671.82        550428.       0.109159E+011   4853.55       0.430438E+007  0.190707E+007
  2703.45        550428.       0.111004E+011   4850.53       0.429876E+007  0.190026E+007
  2735.07        550428.       0.112849E+011   4847.51       0.429313E+007  0.189343E+007
  2766.70        550428.       0.114693E+011   4844.49       0.428749E+007  0.188660E+007
  1533.30        562394.       0.545886E+010   4971.93       0.454681E+007  0.216028E+007
  1564.93        562394.       0.564187E+010   4969.14       0.454147E+007  0.215388E+007
  1596.55        562394.       0.582503E+010   4966.35       0.453611E+007  0.214746E+007
  1628.18        562394.       0.600830E+010   4963.55       0.453075E+007  0.214103E+007
  1659.80        562394.       0.619169E+010   4960.75       0.452537E+007  0.213459E+007
  1691.43        562394.       0.637519E+010   4957.94       0.451999E+007  0.212814E+007
  1723.05        562394.       0.655879E+010   4955.12       0.451460E+007  0.212167E+007
  1754.68        562394.       0.674247E+010   4952.30       0.450920E+007  0.211520E+007
  1786.31        562394.       0.692623E+010   4949.47       0.450379E+007  0.210871E+007
  1817.93        562394.       0.711007E+010   4946.63       0.449837E+007  0.210221E+007
  1849.56        562394.       0.729397E+010   4943.79       0.449295E+007  0.209569E+007
  1881.18        562394.       0.747793E+010   4940.94       0.448752E+007  0.208917E+007
  1912.81        562394.       0.766195E+010   4938.09       0.448208E+007  0.208264E+007
  1944.43        562394.       0.784601E+010   4935.23       0.447664E+007  0.207609E+007
  1976.06        562394.       0.803012E+010   4932.37       0.447118E+007  0.206954E+007
  2007.68        562394.       0.821427E+010   4929.50       0.446572E+007  0.206297E+007
  2039.31        562394.       0.839846E+010   4926.62       0.446026E+007  0.205639E+007
  2070.94        562394.       0.858267E+010   4923.74       0.445478E+007  0.204981E+007
  2102.56        562394.       0.876691E+010   4920.85       0.444930E+007  0.204321E+007
  2134.19        562394.       0.895117E+010   4917.96       0.444382E+007  0.203660E+007
  2165.81        562394.       0.913545E+010   4915.06       0.443832E+007  0.202998E+007
  2197.44        562394.       0.931974E+010   4912.16       0.443281E+007  0.202336E+007
  2229.06        562394.       0.950405E+010   4909.25       0.442731E+007  0.201672E+007
  2260.69        562394.       0.968837E+010   4906.34       0.442180E+007  0.201007E+007
  2292.32        562394.       0.987269E+010   4903.42       0.441630E+007  0.200341E+007
  2323.94        562394.       0.100570E+011   4900.49       0.441075E+007  0.199675E+007
  2355.57        562394.       0.102414E+011   4897.56       0.440522E+007  0.199007E+007
  2387.19        562394.       0.104257E+011   4894.63       0.439968E+007  0.198338E+007
  2418.82        562394.       0.106100E+011   4891.69       0.439414E+007  0.197669E+007
  2450.44        562394.       0.107943E+011   4888.74       0.438858E+007  0.196998E+007
  2482.07        562394.       0.109786E+011   4885.79       0.438303E+007  0.196326E+007
  2513.69        562394.       0.111629E+011   4882.83       0.437746E+007  0.195654E+007
  2545.32        562394.       0.113472E+011   4879.87       0.437189E+007  0.194980E+007
  2576.95        562394.       0.115315E+011   4876.90       0.436631E+007  0.194306E+007
  2608.57        562394.       0.117158E+011   4873.93       0.436073E+007  0.193630E+007
  2640.20        562394.       0.119000E+011   4870.95       0.435514E+007  0.192954E+007
  2671.82        562394.       0.120843E+011   4867.97       0.434955E+007  0.192276E+007
  2703.45        562394.       0.122685E+011   4864.98       0.434394E+007  0.191598E+007
  2735.07        562394.       0.124527E+011   4861.98       0.433834E+007  0.190919E+007
  2766.70        562394.       0.126368E+011   4858.98       0.433272E+007  0.190238E+007
  1533.30        574359.       0.663957E+010   4985.45       0.459115E+007  0.217483E+007
  1564.93        574359.       0.682235E+010   4982.68       0.458582E+007  0.216845E+007
  1596.55        574359.       0.700527E+010   4979.91       0.458048E+007  0.216206E+007
  1628.18        574359.       0.718831E+010   4977.13       0.457513E+007  0.215566E+007
  1659.80        574359.       0.737147E+010   4974.35       0.456977E+007  0.214925E+007
  1691.43        574359.       0.755474E+010   4971.56       0.456441E+007  0.214282E+007
  1723.05        574359.       0.773810E+010   4968.76       0.455904E+007  0.213638E+007
  1754.68        574359.       0.792154E+010   4965.96       0.455366E+007  0.212993E+007
  1786.31        574359.       0.810507E+010   4963.15       0.454827E+007  0.212347E+007
  1817.93        574359.       0.828867E+010   4960.33       0.454287E+007  0.211699E+007
  1849.56        574359.       0.847234E+010   4957.51       0.453747E+007  0.211051E+007
  1881.18        574359.       0.865607E+010   4954.69       0.453206E+007  0.210401E+007
  1912.81        574359.       0.883985E+010   4951.85       0.452664E+007  0.209751E+007
  1944.43        574359.       0.902368E+010   4949.02       0.452121E+007  0.209099E+007
  1976.06        574359.       0.920755E+010   4946.17       0.451579E+007  0.208446E+007
  2007.68        574359.       0.939147E+010   4943.32       0.451034E+007  0.207792E+007
  2039.31        574359.       0.957541E+010   4940.47       0.450489E+007  0.207137E+007
  2070.94        574359.       0.975939E+010   4937.61       0.449944E+007  0.206481E+007
  2102.56        574359.       0.994339E+010   4934.75       0.449398E+007  0.205825E+007
  2134.19        574359.       0.101274E+011   4931.87       0.448851E+007  0.205167E+007
  2165.81        574359.       0.103115E+011   4929.00       0.448304E+007  0.204508E+007
  2197.44        574359.       0.104955E+011   4926.12       0.447756E+007  0.203848E+007
  2229.06        574359.       0.106796E+011   4923.23       0.447207E+007  0.203187E+007
  2260.69        574359.       0.108636E+011   4920.34       0.446658E+007  0.202525E+007
  2292.32        574359.       0.110477E+011   4917.44       0.446108E+007  0.201862E+007
  2323.94        574359.       0.112318E+011   4914.54       0.445557E+007  0.201199E+007
  2355.57        574359.       0.114159E+011   4911.63       0.445006E+007  0.200534E+007
  2387.19        574359.       0.116000E+011   4908.72       0.444454E+007  0.199868E+007
  2418.82        574359.       0.117841E+011   4905.80       0.443902E+007  0.199202E+007
  2450.44        574359.       0.119681E+011   4902.88       0.443349E+007  0.198534E+007
  2482.07        574359.       0.121522E+011   4899.95       0.442795E+007  0.197865E+007
  2513.69        574359.       0.123363E+011   4897.01       0.442241E+007  0.197196E+007
  2545.32        574359.       0.125203E+011   4894.07       0.441683E+007  0.196525E+007
  2576.95        574359.       0.127043E+011   4891.13       0.441131E+007  0.195854E+007
  2608.57        574359.       0.128884E+011   4888.18       0.440575E+007  0.195182E+007
  2640.20        574359.       0.130723E+011   4885.23       0.440018E+007  0.194508E+007
  2671.82        574359.       0.132563E+011   4882.27       0.439461E+007  0.193834E+007
  2703.45        574359.       0.134403E+011   4879.30       0.438903E+007  0.193159E+007
  2735.07        574359.       0.136242E+011   4876.33       0.438344E+007  0.192483E+007
  2766.70        574359.       0.138081E+011   4873.35       0.437786E+007  0.191806E+007
  1533.30        586325.       0.782362E+010   4998.87       0.463540E+007  0.218929E+007
  1564.93        586325.       0.800617E+010   4996.12       0.463009E+007  0.218294E+007
  1596.55        586325.       0.818886E+010   4993.37       0.462477E+007  0.217657E+007
  1628.18        586325.       0.837168E+010   4990.61       0.461944E+007  0.217020E+007
  1659.80        586325.       0.855461E+010   4987.85       0.461410E+007  0.216381E+007
  1691.43        586325.       0.873765E+010   4985.08       0.460875E+007  0.215741E+007
  1723.05        586325.       0.892078E+010   4982.30       0.460340E+007  0.215099E+007
  1754.68        586325.       0.910401E+010   4979.52       0.459804E+007  0.214457E+007
  1786.31        586325.       0.928731E+010   4976.73       0.459267E+007  0.213813E+007
  1817.93        586325.       0.947069E+010   4973.93       0.458729E+007  0.213169E+007
  1849.56        586325.       0.965413E+010   4971.13       0.458190E+007  0.212523E+007
  1881.18        586325.       0.983763E+010   4968.33       0.457652E+007  0.211876E+007
  1912.81        586325.       0.100212E+011   4965.52       0.457111E+007  0.211228E+007
  1944.43        586325.       0.102048E+011   4962.70       0.456570E+007  0.210579E+007
  1976.06        586325.       0.103884E+011   4959.88       0.456029E+007  0.209929E+007
  2007.68        586325.       0.105721E+011   4957.05       0.455487E+007  0.209278E+007
  2039.31        586325.       0.107558E+011   4954.21       0.454944E+007  0.208626E+007
  2070.94        586325.       0.109396E+011   4951.37       0.454401E+007  0.207972E+007
  2102.56        586325.       0.111234E+011   4948.53       0.453857E+007  0.207318E+007
  2134.19        586325.       0.113071E+011   4945.68       0.453312E+007  0.206663E+007
  2165.81        586325.       0.114910E+011   4942.83       0.452766E+007  0.206007E+007
  2197.44        586325.       0.116748E+011   4939.97       0.452220E+007  0.205350E+007
  2229.06        586325.       0.118586E+011   4937.10       0.451674E+007  0.204692E+007
  2260.69        586325.       0.120425E+011   4934.23       0.451127E+007  0.204033E+007
  2292.32        586325.       0.122263E+011   4931.36       0.450579E+007  0.203373E+007
  2323.94        586325.       0.124102E+011   4928.47       0.450030E+007  0.202712E+007
  2355.57        586325.       0.125940E+011   4925.59       0.449481E+007  0.202050E+007
  2387.19        586325.       0.127779E+011   4922.70       0.448931E+007  0.201388E+007
  2418.82        586325.       0.129617E+011   4919.80       0.448391E+007  0.200724E+007
  2450.44        586325.       0.131455E+011   4916.90       0.447830E+007  0.200059E+007
  2482.07        586325.       0.133294E+011   4913.99       0.447278E+007  0.199394E+007
  2513.69        586325.       0.135132E+011   4911.08       0.446726E+007  0.198727E+007
  2545.32        586325.       0.136970E+011   4908.17       0.446174E+007  0.198060E+007
  2576.95        586325.       0.138808E+011   4905.24       0.445620E+007  0.197391E+007
  2608.57        586325.       0.140646E+011   4902.32       0.445066E+007  0.196722E+007
  2640.20        586325.       0.142483E+011   4899.39       0.444512E+007  0.196052E+007
  2671.82        586325.       0.144320E+011   4896.45       0.443957E+007  0.195381E+007
  2703.45        586325.       0.146158E+011   4893.51       0.443401E+007  0.194709E+007
  2735.07        586325.       0.147995E+011   4890.56       0.442845E+007  0.194036E+007
  2766.70        586325.       0.149831E+011   4887.61       0.442288E+007  0.193362E+007
  1533.30        598291.       0.901093E+010   5012.19       0.467957E+007  0.220365E+007
  1564.93        598291.       0.919327E+010   5009.46       0.467428E+007  0.219733E+007
  1596.55        598291.       0.937574E+010   5006.73       0.466897E+007  0.219099E+007
  1628.18        598291.       0.955834E+010   5003.99       0.466366E+007  0.218464E+007
  1659.80        598291.       0.974106E+010   5001.25       0.465834E+007  0.217828E+007
  1691.43        598291.       0.992388E+010   4998.50       0.465301E+007  0.217190E+007
  1723.05        598291.       0.101068E+011   4995.74       0.464768E+007  0.216551E+007
  1754.68        598291.       0.102898E+011   4992.98       0.464236E+007  0.215911E+007
  1786.31        598291.       0.104729E+011   4990.21       0.463698E+007  0.215270E+007
  1817.93        598291.       0.106560E+011   4987.43       0.463162E+007  0.214628E+007
  1849.56        598291.       0.108393E+011   4984.65       0.462625E+007  0.213985E+007
  1881.18        598291.       0.110225E+011   4981.86       0.462088E+007  0.213341E+007
  1912.81        598291.       0.112059E+011   4979.07       0.461550E+007  0.212696E+007
  1944.43        598291.       0.113893E+011   4976.28       0.461011E+007  0.212049E+007
  1976.06        598291.       0.115727E+011   4973.47       0.460471E+007  0.211402E+007
  2007.68        598291.       0.117562E+011   4970.67       0.459931E+007  0.210753E+007
  2039.31        598291.       0.119397E+011   4967.85       0.459390E+007  0.210104E+007
  2070.94        598291.       0.121232E+011   4965.03       0.458849E+007  0.209454E+007
  2102.56        598291.       0.123067E+011   4962.21       0.458307E+007  0.208802E+007
  2134.19        598291.       0.124903E+011   4959.38       0.457764E+007  0.208150E+007
  2165.81        598291.       0.126739E+011   4956.55       0.457220E+007  0.207497E+007
  2197.44        598291.       0.128575E+011   4953.71       0.456676E+007  0.206842E+007
  2229.06        598291.       0.130411E+011   4950.86       0.456132E+007  0.206187E+007
  2260.69        598291.       0.132247E+011   4948.02       0.455586E+007  0.205531E+007
  2292.32        598291.       0.134084E+011   4945.16       0.455042E+007  0.204874E+007
  2323.94        598291.       0.135920E+011   4942.30       0.454494E+007  0.204216E+007
  2355.57        598291.       0.137756E+011   4939.44       0.453947E+007  0.203557E+007
  2387.19        598291.       0.139592E+011   4936.57       0.453399E+007  0.202897E+007
  2418.82        598291.       0.141429E+011   4933.69       0.452851E+007  0.202236E+007
  2450.44        598291.       0.143265E+011   4930.81       0.452302E+007  0.201574E+007
  2482.07        598291.       0.145101E+011   4927.93       0.451752E+007  0.200912E+007
  2513.69        598291.       0.146936E+011   4925.04       0.451202E+007  0.200248E+007
  2545.32        598291.       0.148772E+011   4922.14       0.450652E+007  0.199583E+007
  2576.95        598291.       0.150608E+011   4919.25       0.450100E+007  0.198918E+007
  2608.57        598291.       0.152443E+011   4916.34       0.449548E+007  0.198252E+007
  2640.20        598291.       0.154279E+011   4913.43       0.448996E+007  0.197584E+007
  2671.82        598291.       0.156114E+011   4910.52       0.448443E+007  0.196916E+007
  2703.45        598291.       0.157948E+011   4907.60       0.447890E+007  0.196247E+007
  2735.07        598291.       0.159783E+011   4904.67       0.447335E+007  0.195577E+007
  2766.70        598291.       0.161617E+011   4901.74       0.446781E+007  0.194906E+007
  1533.30        610257.       0.102015E+011   5025.42       0.472366E+007  0.221794E+007
  1564.93        610257.       0.103836E+011   5022.71       0.471838E+007  0.221163E+007
  1596.55        610257.       0.105659E+011   5020.00       0.471310E+007  0.220532E+007
  1628.18        610257.       0.107482E+011   5017.28       0.470781E+007  0.219899E+007
  1659.80        610257.       0.109307E+011   5014.55       0.470250E+007  0.219266E+007
  1691.43        610257.       0.111134E+011   5011.82       0.469719E+007  0.218631E+007
  1723.05        610257.       0.112961E+011   5009.08       0.469187E+007  0.217994E+007
  1754.68        610257.       0.114789E+011   5006.34       0.468655E+007  0.217357E+007
  1786.31        610257.       0.116617E+011   5003.59       0.468121E+007  0.216719E+007
  1817.93        610257.       0.118447E+011   5000.83       0.467587E+007  0.216079E+007
  1849.56        610257.       0.120277E+011   4998.07       0.467052E+007  0.215438E+007
  1881.18        610257.       0.122108E+011   4995.30       0.466517E+007  0.214797E+007
  1912.81        610257.       0.123939E+011   4992.53       0.465980E+007  0.214154E+007
  1944.43        610257.       0.125771E+011   4989.75       0.465443E+007  0.213510E+007
  1976.06        610257.       0.127603E+011   4986.97       0.464905E+007  0.212866E+007
  2007.68        610257.       0.129435E+011   4984.18       0.464367E+007  0.212220E+007
  2039.31        610257.       0.131268E+011   4981.39       0.463828E+007  0.211573E+007
  2070.94        610257.       0.133101E+011   4978.59       0.463288E+007  0.210925E+007
  2102.56        610257.       0.134935E+011   4975.79       0.462748E+007  0.210277E+007
  2134.19        610257.       0.136768E+011   4972.98       0.462207E+007  0.209627E+007
  2165.81        610257.       0.138602E+011   4970.17       0.461666E+007  0.208976E+007
  2197.44        610257.       0.140436E+011   4967.35       0.461123E+007  0.208325E+007
  2229.06        610257.       0.142270E+011   4964.52       0.460581E+007  0.207672E+007
  2260.69        610257.       0.144104E+011   4961.69       0.460037E+007  0.207019E+007
  2292.32        610257.       0.145938E+011   4958.86       0.459493E+007  0.206364E+007
  2323.94        610257.       0.147772E+011   4956.02       0.458948E+007  0.205709E+007
  2355.57        610257.       0.149606E+011   4953.18       0.458403E+007  0.205053E+007
  2387.19        610257.       0.151440E+011   4950.33       0.457858E+007  0.204396E+007
  2418.82        610257.       0.153274E+011   4947.48       0.457311E+007  0.203738E+007
  2450.44        610257.       0.155108E+011   4944.62       0.456764E+007  0.203079E+007
  2482.07        610257.       0.156942E+011   4941.76       0.456217E+007  0.202419E+007
  2513.69        610257.       0.158776E+011   4938.89       0.455669E+007  0.201758E+007
  2545.32        610257.       0.160609E+011   4936.01       0.455120E+007  0.201097E+007
  2576.95        610257.       0.162443E+011   4933.14       0.454574E+007  0.200434E+007
  2608.57        610257.       0.164276E+011   4930.25       0.454021E+007  0.199771E+007
  2640.20        610257.       0.166109E+011   4927.37       0.453471E+007  0.199106E+007
  2671.82        610257.       0.167942E+011   4924.47       0.452920E+007  0.198441E+007
  2703.45        610257.       0.169774E+011   4921.58       0.452369E+007  0.197775E+007
  2735.07        610257.       0.171607E+011   4918.67       0.451817E+007  0.197108E+007
  2766.70        610257.       0.173439E+011   4915.77       0.451264E+007  0.196440E+007
  1533.30        622223.       0.113952E+011   5038.55       0.476768E+007  0.223213E+007
  1564.93        622223.       0.115771E+011   5035.86       0.476242E+007  0.222585E+007
  1596.55        622223.       0.117591E+011   5033.17       0.475715E+007  0.221956E+007
  1628.18        622223.       0.119413E+011   5030.47       0.475187E+007  0.221326E+007
  1659.80        622223.       0.121236E+011   5027.76       0.474659E+007  0.220695E+007
  1691.43        622223.       0.123060E+011   5025.04       0.474130E+007  0.220062E+007
  1723.05        622223.       0.124885E+011   5022.32       0.473599E+007  0.219429E+007
  1754.68        622223.       0.126711E+011   5019.60       0.473068E+007  0.218794E+007
  1786.31        622223.       0.128538E+011   5016.87       0.472537E+007  0.218158E+007
  1817.93        622223.       0.130366E+011   5014.13       0.472004E+007  0.217521E+007
  1849.56        622223.       0.132194E+011   5011.39       0.471471E+007  0.216883E+007
  1881.18        622223.       0.134022E+011   5008.64       0.470937E+007  0.216243E+007
  1912.81        622223.       0.135852E+011   5005.89       0.470402E+007  0.215603E+007
  1944.43        622223.       0.137681E+011   5003.13       0.469867E+007  0.214962E+007
  1976.06        622223.       0.139511E+011   5000.37       0.469331E+007  0.214320E+007
  2007.68        622223.       0.141342E+011   4997.60       0.468795E+007  0.213677E+007
  2039.31        622223.       0.143173E+011   4994.83       0.468257E+007  0.213033E+007
  2070.94        622223.       0.145004E+011   4992.05       0.467720E+007  0.212387E+007
  2102.56        622223.       0.146835E+011   4989.26       0.467186E+007  0.211741E+007
  2134.19        622223.       0.148667E+011   4986.48       0.466643E+007  0.211094E+007
  2165.81        622223.       0.150498E+011   4983.68       0.466102E+007  0.210446E+007
  2197.44        622223.       0.152330E+011   4980.88       0.465562E+007  0.209797E+007
  2229.06        622223.       0.154162E+011   4978.08       0.465021E+007  0.209148E+007
  2260.69        622223.       0.155994E+011   4975.27       0.464479E+007  0.208497E+007
  2292.32        622223.       0.157826E+011   4972.46       0.463937E+007  0.207845E+007
  2323.94        622223.       0.159658E+011   4969.64       0.463395E+007  0.207193E+007
  2355.57        622223.       0.161490E+011   4966.82       0.462851E+007  0.206539E+007
  2387.19        622223.       0.163322E+011   4963.99       0.462308E+007  0.205885E+007
  2418.82        622223.       0.165154E+011   4961.16       0.461763E+007  0.205229E+007
  2450.44        622223.       0.166986E+011   4958.32       0.461218E+007  0.204573E+007
  2482.07        622223.       0.168818E+011   4955.48       0.460673E+007  0.203916E+007
  2513.69        622223.       0.170649E+011   4952.63       0.460124E+007  0.203258E+007
  2545.32        622223.       0.172481E+011   4949.78       0.459580E+007  0.202600E+007
  2576.95        622223.       0.174312E+011   4946.92       0.459033E+007  0.201940E+007
  2608.57        622223.       0.176143E+011   4944.06       0.458485E+007  0.201279E+007
  2640.20        622223.       0.177974E+011   4941.19       0.457937E+007  0.200618E+007
  2671.82        622223.       0.179805E+011   4938.32       0.457388E+007  0.199955E+007
  2703.45        622223.       0.181635E+011   4935.44       0.456838E+007  0.199292E+007
  2735.07        622223.       0.183465E+011   4932.56       0.456288E+007  0.198628E+007
  2766.70        622223.       0.185295E+011   4929.68       0.455738E+007  0.197963E+007
  1533.30        634188.       0.125920E+011   5051.60       0.481162E+007  0.224624E+007
  1564.93        634188.       0.127737E+011   5048.92       0.480638E+007  0.223999E+007
  1596.55        634188.       0.129555E+011   5046.25       0.480113E+007  0.223372E+007
  1628.18        634188.       0.131375E+011   5043.56       0.479587E+007  0.222744E+007
  1659.80        634188.       0.133196E+011   5040.87       0.479060E+007  0.222115E+007
  1691.43        634188.       0.135019E+011   5038.18       0.478532E+007  0.221485E+007
  1723.05        634188.       0.136842E+011   5035.48       0.478003E+007  0.220854E+007
  1754.68        634188.       0.138666E+011   5032.77       0.477474E+007  0.220222E+007
  1786.31        634188.       0.140490E+011   5030.06       0.476944E+007  0.219588E+007
  1817.93        634188.       0.142316E+011   5027.34       0.476413E+007  0.218953E+007
  1849.56        634188.       0.144142E+011   5024.62       0.475882E+007  0.218318E+007
  1881.18        634188.       0.145969E+011   5021.89       0.475350E+007  0.217681E+007
  1912.81        634188.       0.147796E+011   5019.15       0.474817E+007  0.217044E+007
  1944.43        634188.       0.149624E+011   5016.41       0.474283E+007  0.216405E+007
  1976.06        634188.       0.151452E+011   5013.67       0.473749E+007  0.215765E+007
  2007.68        634188.       0.153281E+011   5010.92       0.473214E+007  0.215125E+007
  2039.31        634188.       0.155109E+011   5008.16       0.472679E+007  0.214483E+007
  2070.94        634188.       0.156939E+011   5005.41       0.472143E+007  0.213840E+007
  2102.56        634188.       0.158768E+011   5002.64       0.471606E+007  0.213197E+007
  2134.19        634188.       0.160598E+011   4999.87       0.471069E+007  0.212552E+007
  2165.81        634188.       0.162427E+011   4997.10       0.470531E+007  0.211907E+007
  2197.44        634188.       0.164257E+011   4994.32       0.469992E+007  0.211261E+007
  2229.06        634188.       0.166087E+011   4991.53       0.469453E+007  0.210613E+007
  2260.69        634188.       0.167917E+011   4988.75       0.468913E+007  0.209965E+007
  2292.32        634188.       0.169747E+011   4985.95       0.468373E+007  0.209316E+007
  2323.94        634188.       0.171577E+011   4983.15       0.467832E+007  0.208666E+007
  2355.57        634188.       0.173407E+011   4980.35       0.467291E+007  0.208016E+007
  2387.19        634188.       0.175237E+011   4977.54       0.466749E+007  0.207364E+007
  2418.82        634188.       0.177067E+011   4974.73       0.466206E+007  0.206711E+007
  2450.44        634188.       0.178897E+011   4971.91       0.465663E+007  0.206058E+007
  2482.07        634188.       0.180727E+011   4969.09       0.465120E+007  0.205404E+007
  2513.69        634188.       0.182556E+011   4966.26       0.464575E+007  0.204748E+007
  2545.32        634188.       0.184386E+011   4963.43       0.464031E+007  0.204092E+007
  2576.95        634188.       0.186215E+011   4960.60       0.463485E+007  0.203435E+007
  2608.57        634188.       0.188044E+011   4957.76       0.462940E+007  0.202778E+007
  2640.20        634188.       0.189873E+011   4954.91       0.462393E+007  0.202119E+007
  2671.82        634188.       0.191701E+011   4952.06       0.461846E+007  0.201460E+007
  2703.45        634188.       0.193530E+011   4949.21       0.461299E+007  0.200799E+007
  2735.07        634188.       0.195358E+011   4946.35       0.460738E+007  0.200138E+007
  2766.70        634188.       0.197186E+011   4943.48       0.460202E+007  0.199476E+007
  1533.30        646154.       0.137918E+011   5064.55       0.485549E+007  0.226027E+007
  1564.93        646154.       0.139734E+011   5061.89       0.485026E+007  0.225404E+007
  1596.55        646154.       0.141550E+011   5059.23       0.484503E+007  0.224779E+007
  1628.18        646154.       0.143368E+011   5056.57       0.483978E+007  0.224154E+007
  1659.80        646154.       0.145187E+011   5053.90       0.483453E+007  0.223527E+007
  1691.43        646154.       0.147008E+011   5051.22       0.482927E+007  0.222900E+007
  1723.05        646154.       0.148829E+011   5048.53       0.482400E+007  0.222271E+007
  1754.68        646154.       0.150651E+011   5045.85       0.481872E+007  0.221641E+007
  1786.31        646154.       0.152474E+011   5043.15       0.481344E+007  0.221010E+007
  1817.93        646154.       0.154298E+011   5040.45       0.480815E+007  0.220378E+007
  1849.56        646154.       0.156122E+011   5037.75       0.480285E+007  0.219744E+007
  1881.18        646154.       0.157947E+011   5035.04       0.479755E+007  0.219110E+007
  1912.81        646154.       0.159772E+011   5032.32       0.479223E+007  0.218475E+007
  1944.43        646154.       0.161598E+011   5029.60       0.478692E+007  0.217839E+007
  1976.06        646154.       0.163424E+011   5026.87       0.478159E+007  0.217201E+007
  2007.68        646154.       0.165251E+011   5024.14       0.477626E+007  0.216563E+007
  2039.31        646154.       0.167078E+011   5021.41       0.477092E+007  0.215924E+007
  2070.94        646154.       0.168905E+011   5018.67       0.476558E+007  0.215284E+007
  2102.56        646154.       0.170733E+011   5015.92       0.476023E+007  0.214643E+007
  2134.19        646154.       0.172560E+011   5013.17       0.475487E+007  0.214001E+007
  2165.81        646154.       0.174388E+011   5010.42       0.474951E+007  0.213358E+007
  2197.44        646154.       0.176216E+011   5007.66       0.474414E+007  0.212715E+007
  2229.06        646154.       0.178044E+011   5004.89       0.473877E+007  0.212070E+007
  2260.69        646154.       0.179872E+011   5002.12       0.473339E+007  0.211424E+007
  2292.32        646154.       0.181700E+011   4999.35       0.472800E+007  0.210778E+007
  2323.94        646154.       0.183529E+011   4996.57       0.472269E+007  0.210131E+007
  2355.57        646154.       0.185357E+011   4993.79       0.471722E+007  0.209483E+007
  2387.19        646154.       0.187185E+011   4991.00       0.471182E+007  0.208834E+007
  2418.82        646154.       0.189013E+011   4988.20       0.470641E+007  0.208184E+007
  2450.44        646154.       0.190841E+011   4985.41       0.470100E+007  0.207533E+007
  2482.07        646154.       0.192668E+011   4982.60       0.469558E+007  0.206881E+007
  2513.69        646154.       0.194496E+011   4979.80       0.469016E+007  0.206229E+007
  2545.32        646154.       0.196323E+011   4976.99       0.468473E+007  0.205575E+007
  2576.95        646154.       0.198151E+011   4974.17       0.467929E+007  0.204921E+007
  2608.57        646154.       0.199978E+011   4971.35       0.467385E+007  0.204266E+007
  2640.20        646154.       0.201805E+011   4968.53       0.466841E+007  0.203610E+007
  2671.82        646154.       0.203631E+011   4965.70       0.466296E+007  0.202953E+007
  2703.45        646154.       0.205458E+011   4962.86       0.465751E+007  0.202296E+007
  2735.07        646154.       0.207284E+011   4960.02       0.465205E+007  0.201637E+007
  2766.70        646154.       0.209110E+011   4957.18       0.464658E+007  0.200978E+007
  1533.30        658120.       0.149947E+011   5077.41       0.489929E+007  0.227421E+007
  1564.93        658120.       0.151760E+011   5074.78       0.489408E+007  0.226800E+007
  1596.55        658120.       0.153575E+011   5072.13       0.488886E+007  0.226179E+007
  1628.18        658120.       0.155391E+011   5069.48       0.488363E+007  0.225555E+007
  1659.80        658120.       0.157209E+011   5066.83       0.487839E+007  0.224931E+007
  1691.43        658120.       0.159027E+011   5064.17       0.487315E+007  0.224306E+007
  1723.05        658120.       0.160847E+011   5061.50       0.486789E+007  0.223679E+007
  1754.68        658120.       0.162667E+011   5058.83       0.486263E+007  0.223052E+007
  1786.31        658120.       0.164488E+011   5056.16       0.485737E+007  0.222423E+007
  1817.93        658120.       0.166310E+011   5053.47       0.485209E+007  0.221793E+007
  1849.56        658120.       0.168132E+011   5050.79       0.484681E+007  0.221162E+007
  1881.18        658120.       0.169955E+011   5048.09       0.484152E+007  0.220530E+007
  1912.81        658120.       0.171779E+011   5045.40       0.483622E+007  0.219898E+007
  1944.43        658120.       0.173603E+011   5042.69       0.483092E+007  0.219264E+007
  1976.06        658120.       0.175427E+011   5039.99       0.482561E+007  0.218629E+007
  2007.68        658120.       0.177252E+011   5037.27       0.482030E+007  0.217993E+007
  2039.31        658120.       0.179078E+011   5034.56       0.481498E+007  0.217357E+007
  2070.94        658120.       0.180903E+011   5031.83       0.480965E+007  0.216719E+007
  2102.56        658120.       0.182729E+011   5029.11       0.480432E+007  0.216080E+007
  2134.19        658120.       0.184554E+011   5026.37       0.479898E+007  0.215441E+007
  2165.81        658120.       0.186380E+011   5023.64       0.479363E+007  0.214801E+007
  2197.44        658120.       0.188207E+011   5020.90       0.478828E+007  0.214159E+007
  2229.06        658120.       0.190033E+011   5018.15       0.478293E+007  0.213517E+007
  2260.69        658120.       0.191859E+011   5015.40       0.477756E+007  0.212874E+007
  2292.32        658120.       0.193685E+011   5012.65       0.477220E+007  0.212230E+007
  2323.94        658120.       0.195512E+011   5009.89       0.476682E+007  0.211586E+007
  2355.57        658120.       0.197338E+011   5007.12       0.476144E+007  0.210940E+007
  2387.19        658120.       0.199164E+011   5004.35       0.475606E+007  0.210294E+007
  2418.82        658120.       0.200990E+011   5001.58       0.475067E+007  0.209646E+007
  2450.44        658120.       0.202816E+011   4998.80       0.474528E+007  0.208998E+007
  2482.07        658120.       0.204642E+011   4996.02       0.473988E+007  0.208349E+007
  2513.69        658120.       0.206468E+011   4993.23       0.473447E+007  0.207699E+007
  2545.32        658120.       0.208293E+011   4990.44       0.472906E+007  0.207049E+007
  2576.95        658120.       0.210119E+011   4987.64       0.472365E+007  0.206397E+007
  2608.57        658120.       0.211944E+011   4984.84       0.471823E+007  0.205745E+007
  2640.20        658120.       0.213769E+011   4982.04       0.471280E+007  0.205092E+007
  2671.82        658120.       0.215594E+011   4979.23       0.470737E+007  0.204438E+007
  2703.45        658120.       0.217418E+011   4976.41       0.470194E+007  0.203783E+007
  2735.07        658120.       0.219242E+011   4973.60       0.469649E+007  0.203127E+007
  2766.70        658120.       0.221066E+011   4970.77       0.469105E+007  0.202470E+007
  1533.30        670086.       0.162005E+011   5090.19       0.494301E+007  0.228807E+007
  1564.93        670086.       0.163817E+011   5087.57       0.493782E+007  0.228189E+007
  1596.55        670086.       0.165630E+011   5084.94       0.493261E+007  0.227569E+007
  1628.18        670086.       0.167444E+011   5082.31       0.492740E+007  0.226949E+007
  1659.80        670086.       0.169260E+011   5079.67       0.492218E+007  0.226327E+007
  1691.43        670086.       0.171077E+011   5077.03       0.491695E+007  0.225704E+007
  1723.05        670086.       0.172894E+011   5074.38       0.491171E+007  0.225079E+007
  1754.68        670086.       0.174713E+011   5071.73       0.490647E+007  0.224454E+007
  1786.31        670086.       0.176532E+011   5069.07       0.490121E+007  0.223828E+007
  1817.93        670086.       0.178352E+011   5066.41       0.489596E+007  0.223200E+007
  1849.56        670086.       0.180173E+011   5063.74       0.489069E+007  0.222572E+007
  1881.18        670086.       0.181994E+011   5061.06       0.488542E+007  0.221942E+007
  1912.81        670086.       0.183816E+011   5058.38       0.488014E+007  0.221312E+007
  1944.43        670086.       0.185639E+011   5055.70       0.487485E+007  0.220680E+007
  1976.06        670086.       0.187461E+011   5053.01       0.486956E+007  0.220048E+007
  2007.68        670086.       0.189284E+011   5050.31       0.486426E+007  0.219415E+007
  2039.31        670086.       0.191108E+011   5047.61       0.485896E+007  0.218780E+007
  2070.94        670086.       0.192931E+011   5044.91       0.485365E+007  0.218145E+007
  2102.56        670086.       0.194755E+011   5042.20       0.484833E+007  0.217509E+007
  2134.19        670086.       0.196579E+011   5039.49       0.484301E+007  0.216872E+007
  2165.81        670086.       0.198404E+011   5036.77       0.483768E+007  0.216234E+007
  2197.44        670086.       0.200228E+011   5034.04       0.483234E+007  0.215595E+007
  2229.06        670086.       0.202053E+011   5031.32       0.482700E+007  0.214956E+007
  2260.69        670086.       0.203877E+011   5028.58       0.482166E+007  0.214315E+007
  2292.32        670086.       0.205702E+011   5025.85       0.481631E+007  0.213674E+007
  2323.94        670086.       0.207526E+011   5023.11       0.481095E+007  0.213032E+007
  2355.57        670086.       0.209351E+011   5020.36       0.480559E+007  0.212388E+007
  2387.19        670086.       0.211175E+011   5017.61       0.480023E+007  0.211745E+007
  2418.82        670086.       0.212999E+011   5014.86       0.479486E+007  0.211100E+007
  2450.44        670086.       0.214824E+011   5012.10       0.478948E+007  0.210454E+007
  2482.07        670086.       0.216648E+011   5009.33       0.478412E+007  0.209808E+007
  2513.69        670086.       0.218472E+011   5006.57       0.477871E+007  0.209161E+007
  2545.32        670086.       0.220295E+011   5003.79       0.477332E+007  0.208512E+007
  2576.95        670086.       0.222119E+011   5001.02       0.476792E+007  0.207863E+007
  2608.57        670086.       0.223942E+011   4998.24       0.476252E+007  0.207214E+007
  2640.20        670086.       0.225765E+011   4995.45       0.475711E+007  0.206563E+007
  2671.82        670086.       0.227588E+011   4992.66       0.475170E+007  0.205912E+007
  2703.45        670086.       0.229411E+011   4989.87       0.474628E+007  0.205260E+007
  2735.07        670086.       0.231233E+011   4987.07       0.474086E+007  0.204607E+007
  2766.70        670086.       0.233056E+011   4984.26       0.473543E+007  0.203953E+007
  1533.30        682052.       0.174092E+011   5102.88       0.498667E+007  0.230186E+007
  1564.93        682052.       0.175903E+011   5100.28       0.498149E+007  0.229570E+007
  1596.55        682052.       0.177714E+011   5097.67       0.497629E+007  0.228952E+007
  1628.18        682052.       0.179527E+011   5095.05       0.497110E+007  0.228334E+007
  1659.80        682052.       0.181341E+011   5092.43       0.496589E+007  0.227714E+007
  1691.43        682052.       0.183156E+011   5089.81       0.496068E+007  0.227093E+007
  1723.05        682052.       0.184972E+011   5087.18       0.495546E+007  0.226471E+007
  1754.68        682052.       0.186788E+011   5084.54       0.495023E+007  0.225848E+007
  1786.31        682052.       0.188606E+011   5081.90       0.494499E+007  0.225224E+007
  1817.93        682052.       0.190424E+011   5079.25       0.493975E+007  0.224599E+007
  1849.56        682052.       0.192243E+011   5076.60       0.493450E+007  0.223973E+007
  1881.18        682052.       0.194063E+011   5073.94       0.492924E+007  0.223345E+007
  1912.81        682052.       0.195883E+011   5071.28       0.492398E+007  0.222717E+007
  1944.43        682052.       0.197704E+011   5068.61       0.491871E+007  0.222088E+007
  1976.06        682052.       0.199525E+011   5065.94       0.491343E+007  0.221458E+007
  2007.68        682052.       0.201346E+011   5063.26       0.490815E+007  0.220827E+007
  2039.31        682052.       0.203168E+011   5060.58       0.490286E+007  0.220195E+007
  2070.94        682052.       0.204990E+011   5057.89       0.489758E+007  0.219563E+007
  2102.56        682052.       0.206812E+011   5055.20       0.489227E+007  0.218929E+007
  2134.19        682052.       0.208635E+011   5052.50       0.488696E+007  0.218294E+007
  2165.81        682052.       0.210457E+011   5049.80       0.488165E+007  0.217659E+007
  2197.44        682052.       0.212280E+011   5047.10       0.487633E+007  0.217022E+007
  2229.06        682052.       0.214103E+011   5044.39       0.487101E+007  0.216385E+007
  2260.69        682052.       0.215926E+011   5041.68       0.486568E+007  0.215747E+007
  2292.32        682052.       0.217748E+011   5038.96       0.486035E+007  0.215108E+007
  2323.94        682052.       0.219571E+011   5036.23       0.485501E+007  0.214468E+007
  2355.57        682052.       0.221394E+011   5033.51       0.484966E+007  0.213828E+007
  2387.19        682052.       0.223217E+011   5030.78       0.484431E+007  0.213186E+007
  2418.82        682052.       0.225039E+011   5028.04       0.483889E+007  0.212544E+007
  2450.44        682052.       0.226862E+011   5025.30       0.483360E+007  0.211901E+007
  2482.07        682052.       0.228684E+011   5022.55       0.482823E+007  0.211257E+007
  2513.69        682052.       0.230506E+011   5019.81       0.482286E+007  0.210612E+007
  2545.32        682052.       0.232329E+011   5017.05       0.481749E+007  0.209967E+007
  2576.95        682052.       0.234150E+011   5014.29       0.481214E+007  0.209320E+007
  2608.57        682052.       0.235972E+011   5011.53       0.480672E+007  0.208673E+007
  2640.20        682052.       0.237793E+011   5008.77       0.480133E+007  0.208025E+007
  2671.82        682052.       0.239615E+011   5005.99       0.479594E+007  0.207377E+007
  2703.45        682052.       0.241435E+011   5003.22       0.479057E+007  0.206727E+007
  2735.07        682052.       0.243256E+011   5000.44       0.478513E+007  0.206077E+007
  2766.70        682052.       0.245076E+011   4997.66       0.477973E+007  0.205425E+007
  1533.30        694018.       0.186209E+011   5115.49       0.503026E+007  0.231557E+007
  1564.93        694018.       0.188017E+011   5112.90       0.502509E+007  0.230943E+007
  1596.55        694018.       0.189827E+011   5110.31       0.501992E+007  0.230327E+007
  1628.18        694018.       0.191638E+011   5107.71       0.501473E+007  0.229711E+007
  1659.80        694018.       0.193450E+011   5105.11       0.500954E+007  0.229093E+007
  1691.43        694018.       0.195263E+011   5102.50       0.500434E+007  0.228475E+007
  1723.05        694018.       0.197078E+011   5099.88       0.499914E+007  0.227855E+007
  1754.68        694018.       0.198893E+011   5097.26       0.499392E+007  0.227234E+007
  1786.31        694018.       0.200709E+011   5094.64       0.498870E+007  0.226612E+007
  1817.93        694018.       0.202526E+011   5092.01       0.498347E+007  0.225989E+007
  1849.56        694018.       0.204343E+011   5089.37       0.497824E+007  0.225365E+007
  1881.18        694018.       0.206161E+011   5086.73       0.497299E+007  0.224741E+007
  1912.81        694018.       0.207980E+011   5084.08       0.496775E+007  0.224115E+007
  1944.43        694018.       0.209799E+011   5081.43       0.496249E+007  0.223488E+007
  1976.06        694018.       0.211618E+011   5078.78       0.495723E+007  0.222860E+007
  2007.68        694018.       0.213438E+011   5076.12       0.495200E+007  0.222232E+007
  2039.31        694018.       0.215258E+011   5073.45       0.494669E+007  0.221602E+007
  2070.94        694018.       0.217079E+011   5070.78       0.494141E+007  0.220971E+007
  2102.56        694018.       0.218899E+011   5068.11       0.493613E+007  0.220340E+007
  2134.19        694018.       0.220720E+011   5065.43       0.493084E+007  0.219708E+007
  2165.81        694018.       0.222541E+011   5062.75       0.492554E+007  0.219075E+007
  2197.44        694018.       0.224362E+011   5060.06       0.492024E+007  0.218441E+007
  2229.06        694018.       0.226183E+011   5057.37       0.491493E+007  0.217806E+007
  2260.69        694018.       0.228004E+011   5054.67       0.490962E+007  0.217170E+007
  2292.32        694018.       0.229825E+011   5051.97       0.490430E+007  0.216534E+007
  2323.94        694018.       0.231647E+011   5049.27       0.489898E+007  0.215896E+007
  2355.57        694018.       0.233468E+011   5046.56       0.489371E+007  0.215258E+007
  2387.19        694018.       0.235289E+011   5043.85       0.488832E+007  0.214619E+007
  2418.82        694018.       0.237110E+011   5041.13       0.488298E+007  0.213979E+007
  2450.44        694018.       0.238931E+011   5038.41       0.487764E+007  0.213339E+007
  2482.07        694018.       0.240751E+011   5035.68       0.487229E+007  0.212697E+007
  2513.69        694018.       0.242572E+011   5032.95       0.486694E+007  0.212055E+007
  2545.32        694018.       0.244392E+011   5030.21       0.486158E+007  0.211412E+007
  2576.95        694018.       0.246213E+011   5027.47       0.485622E+007  0.210768E+007
  2608.57        694018.       0.248033E+011   5024.73       0.485085E+007  0.210124E+007
  2640.20        694018.       0.249852E+011   5021.98       0.484538E+007  0.209478E+007
  2671.82        694018.       0.251672E+011   5019.23       0.484010E+007  0.208832E+007
  2703.45        694018.       0.253491E+011   5016.48       0.483472E+007  0.208185E+007
  2735.07        694018.       0.255310E+011   5013.72       0.482933E+007  0.207537E+007
  2766.70        694018.       0.257129E+011   5010.95       0.482394E+007  0.206889E+007
  1533.30        705983.       0.198353E+011   5128.02       0.507378E+007  0.232919E+007
  1564.93        705983.       0.200160E+011   5125.44       0.506863E+007  0.232308E+007
  1596.55        705983.       0.201968E+011   5122.87       0.506347E+007  0.231695E+007
  1628.18        705983.       0.203777E+011   5120.29       0.505830E+007  0.231080E+007
  1659.80        705983.       0.205588E+011   5117.70       0.505312E+007  0.230465E+007
  1691.43        705983.       0.207400E+011   5115.10       0.504794E+007  0.229848E+007
  1723.05        705983.       0.209213E+011   5112.51       0.504274E+007  0.229231E+007
  1754.68        705983.       0.211026E+011   5109.90       0.503754E+007  0.228612E+007
  1786.31        705983.       0.212841E+011   5107.29       0.503234E+007  0.227993E+007
  1817.93        705983.       0.214656E+011   5104.68       0.502712E+007  0.227372E+007
  1849.56        705983.       0.216472E+011   5102.06       0.502190E+007  0.226750E+007
  1881.18        705983.       0.218288E+011   5099.43       0.501668E+007  0.226128E+007
  1912.81        705983.       0.220105E+011   5096.81       0.501144E+007  0.225504E+007
  1944.43        705983.       0.221923E+011   5094.17       0.500620E+007  0.224879E+007
  1976.06        705983.       0.223741E+011   5091.53       0.500096E+007  0.224254E+007
  2007.68        705983.       0.225559E+011   5088.89       0.499571E+007  0.223628E+007
  2039.31        705983.       0.227377E+011   5086.24       0.499045E+007  0.223000E+007
  2070.94        705983.       0.229196E+011   5083.59       0.498518E+007  0.222372E+007
  2102.56        705983.       0.231015E+011   5080.93       0.497992E+007  0.221743E+007
  2134.19        705983.       0.232834E+011   5078.27       0.497464E+007  0.221113E+007
  2165.81        705983.       0.234654E+011   5075.61       0.496936E+007  0.220482E+007
  2197.44        705983.       0.236473E+011   5072.94       0.496408E+007  0.219851E+007
  2229.06        705983.       0.238293E+011   5070.26       0.495878E+007  0.219218E+007
  2260.69        705983.       0.240113E+011   5067.58       0.495349E+007  0.218585E+007
  2292.32        705983.       0.241932E+011   5064.90       0.494817E+007  0.217951E+007
  2323.94        705983.       0.243752E+011   5062.21       0.494288E+007  0.217316E+007
  2355.57        705983.       0.245571E+011   5059.52       0.493757E+007  0.216680E+007
  2387.19        705983.       0.247391E+011   5056.83       0.493227E+007  0.216043E+007
  2418.82        705983.       0.249210E+011   5054.13       0.492693E+007  0.215406E+007
  2450.44        705983.       0.251029E+011   5051.42       0.492160E+007  0.214768E+007
  2482.07        705983.       0.252849E+011   5048.71       0.491627E+007  0.214129E+007
  2513.69        705983.       0.254668E+011   5046.00       0.491094E+007  0.213489E+007
  2545.32        705983.       0.256486E+011   5043.28       0.490560E+007  0.212848E+007
  2576.95        705983.       0.258305E+011   5040.56       0.490036E+007  0.212207E+007
  2608.57        705983.       0.260123E+011   5037.84       0.489490E+007  0.211565E+007
  2640.20        705983.       0.261942E+011   5035.11       0.488954E+007  0.210922E+007
  2671.82        705983.       0.263759E+011   5032.37       0.488418E+007  0.210278E+007
  2703.45        705983.       0.265577E+011   5029.64       0.487882E+007  0.209634E+007
  2735.07        705983.       0.267394E+011   5026.90       0.487345E+007  0.208988E+007
  2766.70        705983.       0.269211E+011   5024.15       0.486807E+007  0.208342E+007
  1533.30        717949.       0.210525E+011   5140.46       0.511724E+007  0.234275E+007
  1564.93        717949.       0.212330E+011   5137.91       0.511210E+007  0.233665E+007
  1596.55        717949.       0.214137E+011   5135.34       0.510695E+007  0.233054E+007
  1628.18        717949.       0.215945E+011   5132.78       0.510180E+007  0.232442E+007
  1659.80        717949.       0.217754E+011   5130.21       0.509663E+007  0.231829E+007
  1691.43        717949.       0.219564E+011   5127.63       0.509146E+007  0.231214E+007
  1723.05        717949.       0.221376E+011   5125.05       0.508628E+007  0.230599E+007
  1754.68        717949.       0.223188E+011   5122.46       0.508110E+007  0.229983E+007
  1786.31        717949.       0.225001E+011   5119.86       0.507591E+007  0.229365E+007
  1817.93        717949.       0.226814E+011   5117.27       0.507071E+007  0.228747E+007
  1849.56        717949.       0.228629E+011   5114.66       0.506550E+007  0.228127E+007
  1881.18        717949.       0.230444E+011   5112.06       0.506029E+007  0.227507E+007
  1912.81        717949.       0.232259E+011   5109.44       0.505507E+007  0.226885E+007
  1944.43        717949.       0.234075E+011   5106.83       0.504985E+007  0.226263E+007
  1976.06        717949.       0.235891E+011   5104.20       0.504461E+007  0.225640E+007
  2007.68        717949.       0.237708E+011   5101.58       0.503938E+007  0.225015E+007
  2039.31        717949.       0.239525E+011   5098.95       0.503413E+007  0.224390E+007
  2070.94        717949.       0.241343E+011   5096.31       0.502889E+007  0.223764E+007
  2102.56        717949.       0.243160E+011   5093.67       0.502363E+007  0.223138E+007
  2134.19        717949.       0.244978E+011   5091.03       0.501837E+007  0.222510E+007
  2165.81        717949.       0.246796E+011   5088.38       0.501311E+007  0.221881E+007
  2197.44        717949.       0.248614E+011   5085.72       0.500784E+007  0.221252E+007
  2229.06        717949.       0.250432E+011   5083.07       0.500255E+007  0.220622E+007
  2260.69        717949.       0.252250E+011   5080.40       0.499728E+007  0.219991E+007
  2292.32        717949.       0.254068E+011   5077.74       0.499200E+007  0.219359E+007
  2323.94        717949.       0.255886E+011   5075.07       0.498671E+007  0.218726E+007
  2355.57        717949.       0.257704E+011   5072.39       0.498141E+007  0.218093E+007
  2387.19        717949.       0.259522E+011   5069.72       0.497611E+007  0.217459E+007
  2418.82        717949.       0.261340E+011   5067.03       0.497080E+007  0.216824E+007
  2450.44        717949.       0.263158E+011   5064.35       0.496549E+007  0.216188E+007
  2482.07        717949.       0.264975E+011   5061.66       0.496018E+007  0.215551E+007
  2513.69        717949.       0.266793E+011   5058.96       0.495496E+007  0.214914E+007
  2545.32        717949.       0.268610E+011   5056.26       0.494953E+007  0.214276E+007
  2576.95        717949.       0.270427E+011   5053.56       0.494420E+007  0.213637E+007
  2608.57        717949.       0.272244E+011   5050.85       0.493887E+007  0.212997E+007
  2640.20        717949.       0.274061E+011   5048.14       0.493353E+007  0.212356E+007
  2671.82        717949.       0.275877E+011   5045.42       0.492815E+007  0.211715E+007
  2703.45        717949.       0.277693E+011   5042.70       0.492284E+007  0.211073E+007
  2735.07        717949.       0.279509E+011   5039.98       0.491748E+007  0.210430E+007
  2766.70        717949.       0.281324E+011   5037.25       0.491213E+007  0.209787E+007
  1533.30        729915.       0.222724E+011   5152.83       0.516063E+007  0.235623E+007
  1564.93        729915.       0.224528E+011   5150.29       0.515550E+007  0.235015E+007
  1596.55        729915.       0.226333E+011   5147.74       0.515037E+007  0.234406E+007
  1628.18        729915.       0.228140E+011   5145.19       0.514523E+007  0.233796E+007
  1659.80        729915.       0.229948E+011   5142.63       0.514008E+007  0.233185E+007
  1691.43        729915.       0.231756E+011   5140.07       0.513492E+007  0.232573E+007
  1723.05        729915.       0.233566E+011   5137.50       0.512976E+007  0.231959E+007
  1754.68        729915.       0.235377E+011   5134.93       0.512459E+007  0.231345E+007
  1786.31        729915.       0.237188E+011   5132.35       0.511941E+007  0.230730E+007
  1817.93        729915.       0.239001E+011   5129.77       0.511422E+007  0.230113E+007
  1849.56        729915.       0.240813E+011   5127.19       0.510903E+007  0.229496E+007
  1881.18        729915.       0.242627E+011   5124.59       0.510383E+007  0.228878E+007
  1912.81        729915.       0.244441E+011   5122.00       0.509863E+007  0.228258E+007
  1944.43        729915.       0.246256E+011   5119.40       0.509342E+007  0.227638E+007
  1976.06        729915.       0.248070E+011   5116.79       0.508820E+007  0.227017E+007
  2007.68        729915.       0.249886E+011   5114.18       0.508298E+007  0.226395E+007
  2039.31        729915.       0.251701E+011   5111.56       0.507775E+007  0.225772E+007
  2070.94        729915.       0.253517E+011   5108.95       0.507252E+007  0.225149E+007
  2102.56        729915.       0.255333E+011   5106.32       0.506728E+007  0.224524E+007
  2134.19        729915.       0.257150E+011   5103.69       0.506203E+007  0.223899E+007
  2165.81        729915.       0.258966E+011   5101.06       0.505679E+007  0.223272E+007
  2197.44        729915.       0.260783E+011   5098.43       0.505155E+007  0.222645E+007
  2229.06        729915.       0.262599E+011   5095.78       0.504627E+007  0.222017E+007
  2260.69        729915.       0.264416E+011   5093.14       0.504100E+007  0.221389E+007
  2292.32        729915.       0.266233E+011   5090.49       0.503573E+007  0.220759E+007
  2323.94        729915.       0.268049E+011   5087.84       0.503046E+007  0.220129E+007
  2355.57        729915.       0.269866E+011   5085.18       0.502518E+007  0.219498E+007
  2387.19        729915.       0.271682E+011   5082.52       0.501989E+007  0.218866E+007
  2418.82        729915.       0.273499E+011   5079.85       0.501460E+007  0.218233E+007
  2450.44        729915.       0.275315E+011   5077.18       0.500940E+007  0.217599E+007
  2482.07        729915.       0.277131E+011   5074.51       0.500401E+007  0.216965E+007
  2513.69        729915.       0.278947E+011   5071.83       0.499870E+007  0.216330E+007
  2545.32        729915.       0.280763E+011   5069.15       0.499339E+007  0.215694E+007
  2576.95        729915.       0.282579E+011   5066.46       0.498808E+007  0.215058E+007
  2608.57        729915.       0.284394E+011   5063.77       0.498275E+007  0.214420E+007
  2640.20        729915.       0.286209E+011   5061.08       0.497744E+007  0.213782E+007
  2671.82        729915.       0.288024E+011   5058.38       0.497211E+007  0.213143E+007
  2703.45        729915.       0.289839E+011   5055.68       0.496678E+007  0.212504E+007
  2735.07        729915.       0.291653E+011   5052.98       0.496144E+007  0.211863E+007
  2766.70        729915.       0.293467E+011   5050.27       0.495610E+007  0.211222E+007
  1533.30        741881.       0.234951E+011   5165.12       0.520395E+007  0.236963E+007
  1564.93        741881.       0.236753E+011   5162.59       0.519884E+007  0.236357E+007
  1596.55        741881.       0.238557E+011   5160.06       0.519372E+007  0.235751E+007
  1628.18        741881.       0.240362E+011   5157.52       0.518859E+007  0.235143E+007
  1659.80        741881.       0.242168E+011   5154.98       0.518346E+007  0.234534E+007
  1691.43        741881.       0.243976E+011   5152.44       0.517832E+007  0.233923E+007
  1723.05        741881.       0.245784E+011   5149.88       0.517317E+007  0.233312E+007
  1754.68        741881.       0.247593E+011   5147.33       0.516801E+007  0.232700E+007
  1786.31        741881.       0.249403E+011   5144.77       0.516284E+007  0.232087E+007
  1817.93        741881.       0.251214E+011   5142.20       0.515767E+007  0.231472E+007
  1849.56        741881.       0.253026E+011   5139.63       0.515250E+007  0.230857E+007
  1881.18        741881.       0.254838E+011   5137.05       0.514731E+007  0.230241E+007
  1912.81        741881.       0.256651E+011   5134.47       0.514212E+007  0.229624E+007
  1944.43        741881.       0.258464E+011   5131.88       0.513692E+007  0.229006E+007
  1976.06        741881.       0.260277E+011   5129.29       0.513172E+007  0.228387E+007
  2007.68        741881.       0.262091E+011   5126.70       0.512651E+007  0.227767E+007
  2039.31        741881.       0.263905E+011   5124.10       0.512130E+007  0.227146E+007
  2070.94        741881.       0.265720E+011   5121.50       0.511608E+007  0.226525E+007
  2102.56        741881.       0.267535E+011   5118.89       0.511085E+007  0.225902E+007
  2134.19        741881.       0.269349E+011   5116.28       0.510563E+007  0.225279E+007
  2165.81        741881.       0.271165E+011   5113.66       0.510039E+007  0.224655E+007
  2197.44        741881.       0.272980E+011   5111.04       0.509515E+007  0.224030E+007
  2229.06        741881.       0.274795E+011   5108.42       0.508991E+007  0.223405E+007
  2260.69        741881.       0.276610E+011   5105.79       0.508466E+007  0.222778E+007
  2292.32        741881.       0.278425E+011   5103.16       0.507940E+007  0.222151E+007
  2323.94        741881.       0.280241E+011   5100.52       0.507414E+007  0.221523E+007
  2355.57        741881.       0.282056E+011   5097.88       0.506887E+007  0.220894E+007
  2387.19        741881.       0.283871E+011   5095.24       0.506352E+007  0.220264E+007
  2418.82        741881.       0.285686E+011   5092.59       0.505833E+007  0.219634E+007
  2450.44        741881.       0.287501E+011   5089.93       0.505305E+007  0.219002E+007
  2482.07        741881.       0.289316E+011   5087.28       0.504776E+007  0.218371E+007
  2513.69        741881.       0.291130E+011   5084.62       0.504248E+007  0.217738E+007
  2545.32        741881.       0.292945E+011   5081.95       0.503718E+007  0.217104E+007
  2576.95        741881.       0.294759E+011   5079.28       0.503188E+007  0.216470E+007
  2608.57        741881.       0.296573E+011   5076.61       0.502658E+007  0.215835E+007
  2640.20        741881.       0.298387E+011   5073.93       0.502127E+007  0.215199E+007
  2671.82        741881.       0.300200E+011   5071.25       0.501596E+007  0.214563E+007
  2703.45        741881.       0.302013E+011   5068.57       0.501065E+007  0.213926E+007
  2735.07        741881.       0.303826E+011   5065.88       0.500532E+007  0.213288E+007
  2766.70        741881.       0.305639E+011   5063.19       0.500000E+007  0.212649E+007
  1533.30        753847.       0.247204E+011   5177.33       0.524722E+007  0.238296E+007
  1564.93        753847.       0.249005E+011   5174.82       0.524212E+007  0.237693E+007
  1596.55        753847.       0.250807E+011   5172.30       0.523701E+007  0.237088E+007
  1628.18        753847.       0.252611E+011   5169.78       0.523190E+007  0.236482E+007
  1659.80        753847.       0.254416E+011   5167.25       0.522678E+007  0.235875E+007
  1691.43        753847.       0.256222E+011   5164.72       0.522165E+007  0.235267E+007
  1723.05        753847.       0.258029E+011   5162.19       0.521651E+007  0.234658E+007
  1754.68        753847.       0.259837E+011   5159.64       0.521137E+007  0.234047E+007
  1786.31        753847.       0.261645E+011   5157.10       0.520621E+007  0.233436E+007
  1817.93        753847.       0.263455E+011   5154.55       0.520106E+007  0.232824E+007
  1849.56        753847.       0.265265E+011   5151.99       0.519589E+007  0.232211E+007
  1881.18        753847.       0.267076E+011   5149.43       0.519072E+007  0.231597E+007
  1912.81        753847.       0.268887E+011   5146.86       0.518555E+007  0.230982E+007
  1944.43        753847.       0.270699E+011   5144.29       0.518036E+007  0.230366E+007
  1976.06        753847.       0.272511E+011   5141.72       0.517518E+007  0.229749E+007
  2007.68        753847.       0.274324E+011   5139.14       0.516997E+007  0.229131E+007
  2039.31        753847.       0.276137E+011   5136.56       0.516477E+007  0.228513E+007
  2070.94        753847.       0.277950E+011   5133.97       0.515958E+007  0.227893E+007
  2102.56        753847.       0.279763E+011   5131.38       0.515437E+007  0.227273E+007
  2134.19        753847.       0.281577E+011   5128.78       0.514915E+007  0.226652E+007
  2165.81        753847.       0.283391E+011   5126.18       0.514393E+007  0.226030E+007
  2197.44        753847.       0.285204E+011   5123.58       0.513870E+007  0.225407E+007
  2229.06        753847.       0.287018E+011   5120.97       0.513347E+007  0.224784E+007
  2260.69        753847.       0.288832E+011   5118.36       0.512824E+007  0.224160E+007
  2292.32        753847.       0.290646E+011   5115.74       0.512300E+007  0.223534E+007
  2323.94        753847.       0.292460E+011   5113.12       0.511775E+007  0.222909E+007
  2355.57        753847.       0.294274E+011   5110.50       0.511250E+007  0.222282E+007
  2387.19        753847.       0.296088E+011   5107.87       0.510724E+007  0.221654E+007
  2418.82        753847.       0.297901E+011   5105.23       0.510199E+007  0.221026E+007
  2450.44        753847.       0.299715E+011   5102.60       0.509672E+007  0.220397E+007
  2482.07        753847.       0.301528E+011   5099.96       0.509145E+007  0.219768E+007
  2513.69        753847.       0.303342E+011   5097.31       0.508618E+007  0.219137E+007
  2545.32        753847.       0.305155E+011   5094.67       0.508090E+007  0.218506E+007
  2576.95        753847.       0.306967E+011   5092.01       0.507561E+007  0.217874E+007
  2608.57        753847.       0.308780E+011   5089.36       0.507033E+007  0.217241E+007
  2640.20        753847.       0.310592E+011   5086.70       0.506504E+007  0.216608E+007
  2671.82        753847.       0.312405E+011   5084.04       0.505974E+007  0.215974E+007
  2703.45        753847.       0.314216E+011   5081.37       0.505444E+007  0.215339E+007
  2735.07        753847.       0.316028E+011   5078.70       0.504913E+007  0.214703E+007
  2766.70        753847.       0.317839E+011   5076.02       0.504386E+007  0.214067E+007
  1533.30        765813.       0.259483E+011   5189.46       0.529042E+007  0.239622E+007
  1564.93        765813.       0.261283E+011   5186.97       0.528534E+007  0.239021E+007
  1596.55        765813.       0.263084E+011   5184.47       0.528024E+007  0.238418E+007
  1628.18        765813.       0.264886E+011   5181.96       0.527514E+007  0.237814E+007
  1659.80        765813.       0.266690E+011   5179.45       0.527003E+007  0.237209E+007
  1691.43        765813.       0.268494E+011   5176.93       0.526491E+007  0.236603E+007
  1723.05        765813.       0.270300E+011   5174.41       0.525979E+007  0.235996E+007
  1754.68        765813.       0.272107E+011   5171.88       0.525466E+007  0.235387E+007
  1786.31        765813.       0.273914E+011   5169.35       0.524952E+007  0.234778E+007
  1817.93        765813.       0.275722E+011   5166.81       0.524438E+007  0.234168E+007
  1849.56        765813.       0.277531E+011   5164.27       0.523923E+007  0.233557E+007
  1881.18        765813.       0.279341E+011   5161.73       0.523407E+007  0.232945E+007
  1912.81        765813.       0.281151E+011   5159.18       0.522891E+007  0.232332E+007
  1944.43        765813.       0.282961E+011   5156.62       0.522374E+007  0.231718E+007
  1976.06        765813.       0.284772E+011   5154.06       0.521859E+007  0.231103E+007
  2007.68        765813.       0.286583E+011   5151.50       0.521338E+007  0.230488E+007
  2039.31        765813.       0.288395E+011   5148.93       0.520820E+007  0.229871E+007
  2070.94        765813.       0.290207E+011   5146.36       0.520301E+007  0.229254E+007
  2102.56        765813.       0.292019E+011   5143.78       0.519781E+007  0.228636E+007
  2134.19        765813.       0.293831E+011   5141.20       0.519261E+007  0.228017E+007
  2165.81        765813.       0.295644E+011   5138.62       0.518740E+007  0.227397E+007
  2197.44        765813.       0.297456E+011   5136.03       0.518219E+007  0.226777E+007
  2229.06        765813.       0.299269E+011   5133.44       0.517697E+007  0.226155E+007
  2260.69        765813.       0.301082E+011   5130.84       0.517175E+007  0.225533E+007
  2292.32        765813.       0.302894E+011   5128.24       0.516652E+007  0.224910E+007
  2323.94        765813.       0.304707E+011   5125.64       0.516129E+007  0.224286E+007
  2355.57        765813.       0.306519E+011   5123.03       0.515603E+007  0.223662E+007
  2387.19        765813.       0.308332E+011   5120.42       0.515082E+007  0.223037E+007
  2418.82        765813.       0.310144E+011   5117.80       0.514557E+007  0.222411E+007
  2450.44        765813.       0.311957E+011   5115.18       0.514032E+007  0.221784E+007
  2482.07        765813.       0.313769E+011   5112.56       0.513507E+007  0.221156E+007
  2513.69        765813.       0.315581E+011   5109.93       0.512981E+007  0.220528E+007
  2545.32        765813.       0.317392E+011   5107.30       0.512452E+007  0.219899E+007
  2576.95        765813.       0.319204E+011   5104.66       0.511927E+007  0.219270E+007
  2608.57        765813.       0.321015E+011   5102.02       0.511400E+007  0.218639E+007
  2640.20        765813.       0.322826E+011   5099.38       0.510872E+007  0.218008E+007
  2671.82        765813.       0.324637E+011   5096.73       0.510344E+007  0.217376E+007
  2703.45        765813.       0.326448E+011   5094.08       0.509815E+007  0.216743E+007
  2735.07        765813.       0.328258E+011   5091.43       0.509287E+007  0.216110E+007
  2766.70        765813.       0.330068E+011   5088.77       0.508761E+007  0.215476E+007
  1533.30        777778.       0.271788E+011   5201.53       0.533356E+007  0.240941E+007
  1564.93        777778.       0.273586E+011   5199.04       0.532849E+007  0.240342E+007
  1596.55        777778.       0.275386E+011   5196.56       0.532341E+007  0.239741E+007
  1628.18        777778.       0.277187E+011   5194.07       0.531832E+007  0.239139E+007
  1659.80        777778.       0.278989E+011   5191.57       0.531322E+007  0.238536E+007
  1691.43        777778.       0.280793E+011   5189.07       0.530812E+007  0.237932E+007
  1723.05        777778.       0.282597E+011   5186.56       0.530301E+007  0.237326E+007
  1754.68        777778.       0.284403E+011   5184.05       0.529789E+007  0.236720E+007
  1786.31        777778.       0.286209E+011   5181.53       0.529277E+007  0.236113E+007
  1817.93        777778.       0.288016E+011   5179.01       0.528763E+007  0.235505E+007
  1849.56        777778.       0.289824E+011   5176.48       0.528250E+007  0.234896E+007
  1881.18        777778.       0.291632E+011   5173.95       0.527735E+007  0.234286E+007
  1912.81        777778.       0.293441E+011   5171.41       0.527218E+007  0.233675E+007
  1944.43        777778.       0.295250E+011   5168.87       0.526705E+007  0.233063E+007
  1976.06        777778.       0.297059E+011   5166.33       0.526189E+007  0.232450E+007
  2007.68        777778.       0.298870E+011   5163.78       0.525672E+007  0.231837E+007
  2039.31        777778.       0.300680E+011   5161.23       0.525155E+007  0.231222E+007
  2070.94        777778.       0.302491E+011   5158.67       0.524637E+007  0.230607E+007
  2102.56        777778.       0.304301E+011   5156.11       0.524119E+007  0.229991E+007
  2134.19        777778.       0.306112E+011   5153.55       0.523600E+007  0.229374E+007
  2165.81        777778.       0.307924E+011   5150.98       0.523081E+007  0.228756E+007
  2197.44        777778.       0.309735E+011   5148.40       0.522561E+007  0.228138E+007
  2229.06        777778.       0.311546E+011   5145.83       0.522041E+007  0.227519E+007
  2260.69        777778.       0.313358E+011   5143.25       0.521520E+007  0.226899E+007
  2292.32        777778.       0.315169E+011   5140.66       0.520998E+007  0.226278E+007
  2323.94        777778.       0.316981E+011   5138.07       0.520477E+007  0.225656E+007
  2355.57        777778.       0.318792E+011   5135.48       0.519954E+007  0.225034E+007
  2387.19        777778.       0.320603E+011   5132.88       0.519432E+007  0.224411E+007
  2418.82        777778.       0.322414E+011   5130.28       0.518909E+007  0.223787E+007
  2450.44        777778.       0.324225E+011   5127.68       0.518385E+007  0.223162E+007
  2482.07        777778.       0.326036E+011   5125.07       0.517852E+007  0.222537E+007
  2513.69        777778.       0.327847E+011   5122.46       0.517337E+007  0.221911E+007
  2545.32        777778.       0.329658E+011   5119.84       0.516812E+007  0.221284E+007
  2576.95        777778.       0.331468E+011   5117.22       0.516286E+007  0.220657E+007
  2608.57        777778.       0.333278E+011   5114.60       0.515761E+007  0.220029E+007
  2640.20        777778.       0.335088E+011   5111.97       0.515234E+007  0.219400E+007
  2671.82        777778.       0.336897E+011   5109.34       0.514708E+007  0.218770E+007
  2703.45        777778.       0.338706E+011   5106.71       0.514181E+007  0.218140E+007
  2735.07        777778.       0.340515E+011   5104.07       0.513653E+007  0.217509E+007
  2766.70        777778.       0.342324E+011   5101.43       0.513125E+007  0.216877E+007
  1533.30        789744.       0.284118E+011   5213.51       0.537664E+007  0.242253E+007
  1564.93        789744.       0.285915E+011   5211.05       0.537158E+007  0.241655E+007
  1596.55        789744.       0.287714E+011   5208.57       0.536651E+007  0.241057E+007
  1628.18        789744.       0.289514E+011   5206.10       0.536144E+007  0.240457E+007
  1659.80        789744.       0.291315E+011   5203.61       0.535636E+007  0.239855E+007
  1691.43        789744.       0.293117E+011   5201.13       0.535126E+007  0.239253E+007
  1723.05        789744.       0.294920E+011   5198.63       0.534617E+007  0.238650E+007
  1754.68        789744.       0.296725E+011   5196.13       0.534106E+007  0.238046E+007
  1786.31        789744.       0.298530E+011   5193.63       0.533595E+007  0.237441E+007
  1817.93        789744.       0.300335E+011   5191.12       0.533083E+007  0.236834E+007
  1849.56        789744.       0.302142E+011   5188.61       0.532571E+007  0.236227E+007
  1881.18        789744.       0.303949E+011   5186.10       0.532058E+007  0.235619E+007
  1912.81        789744.       0.305756E+011   5183.58       0.531544E+007  0.235010E+007
  1944.43        789744.       0.307564E+011   5181.05       0.531030E+007  0.234401E+007
  1976.06        789744.       0.309373E+011   5178.52       0.530515E+007  0.233790E+007
  2007.68        789744.       0.311182E+011   5175.99       0.529999E+007  0.233178E+007
  2039.31        789744.       0.312991E+011   5173.45       0.529484E+007  0.232566E+007
  2070.94        789744.       0.314800E+011   5170.91       0.528967E+007  0.231953E+007
  2102.56        789744.       0.316610E+011   5168.36       0.528450E+007  0.231339E+007
  2134.19        789744.       0.318420E+011   5165.81       0.527933E+007  0.230724E+007
  2165.81        789744.       0.320230E+011   5163.26       0.527415E+007  0.230108E+007
  2197.44        789744.       0.322040E+011   5160.70       0.526896E+007  0.229492E+007
  2229.06        789744.       0.323850E+011   5158.14       0.526377E+007  0.228875E+007
  2260.69        789744.       0.325661E+011   5155.57       0.525858E+007  0.228257E+007
  2292.32        789744.       0.327471E+011   5153.00       0.525338E+007  0.227638E+007
  2323.94        789744.       0.329281E+011   5150.43       0.524818E+007  0.227018E+007
  2355.57        789744.       0.331091E+011   5147.85       0.524297E+007  0.226398E+007
  2387.19        789744.       0.332901E+011   5145.27       0.523775E+007  0.225777E+007
  2418.82        789744.       0.334711E+011   5142.68       0.523254E+007  0.225156E+007
  2450.44        789744.       0.336521E+011   5140.10       0.522731E+007  0.224533E+007
  2482.07        789744.       0.338331E+011   5137.50       0.522209E+007  0.223910E+007
  2513.69        789744.       0.340140E+011   5134.91       0.521686E+007  0.223286E+007
  2545.32        789744.       0.341950E+011   5132.31       0.521162E+007  0.222662E+007
  2576.95        789744.       0.343759E+011   5129.70       0.520638E+007  0.222036E+007
  2608.57        789744.       0.345568E+011   5127.10       0.520114E+007  0.221410E+007
  2640.20        789744.       0.347376E+011   5124.49       0.519589E+007  0.220783E+007
  2671.82        789744.       0.349185E+011   5121.87       0.519064E+007  0.220156E+007
  2703.45        789744.       0.350993E+011   5119.25       0.518538E+007  0.219528E+007
  2735.07        789744.       0.352800E+011   5116.63       0.518012E+007  0.218899E+007
  2766.70        789744.       0.354608E+011   5114.01       0.517486E+007  0.218270E+007
  1533.30        801710.       0.296474E+011   5225.43       0.541967E+007  0.243558E+007
  1564.93        801710.       0.298270E+011   5222.98       0.541462E+007  0.242962E+007
  1596.55        801710.       0.300067E+011   5220.52       0.540956E+007  0.242365E+007
  1628.18        801710.       0.301866E+011   5218.06       0.540450E+007  0.241767E+007
  1659.80        801710.       0.303666E+011   5215.59       0.539943E+007  0.241168E+007
  1691.43        801710.       0.305467E+011   5213.11       0.539435E+007  0.240568E+007
  1723.05        801710.       0.307269E+011   5210.63       0.538926E+007  0.239967E+007
  1754.68        801710.       0.309072E+011   5208.15       0.538417E+007  0.239364E+007
  1786.31        801710.       0.310876E+011   5205.66       0.537907E+007  0.238761E+007
  1817.93        801710.       0.312680E+011   5203.17       0.537397E+007  0.238157E+007
  1849.56        801710.       0.314485E+011   5200.67       0.536885E+007  0.237552E+007
  1881.18        801710.       0.316291E+011   5198.17       0.536374E+007  0.236946E+007
  1912.81        801710.       0.318098E+011   5195.66       0.535861E+007  0.236339E+007
  1944.43        801710.       0.319905E+011   5193.15       0.535348E+007  0.235731E+007
  1976.06        801710.       0.321712E+011   5190.64       0.534835E+007  0.235122E+007
  2007.68        801710.       0.323520E+011   5188.12       0.534321E+007  0.234512E+007
  2039.31        801710.       0.325328E+011   5185.59       0.533806E+007  0.233902E+007
  2070.94        801710.       0.327136E+011   5183.07       0.533291E+007  0.233291E+007
  2102.56        801710.       0.328945E+011   5180.54       0.532775E+007  0.232679E+007
  2134.19        801710.       0.330753E+011   5178.00       0.532259E+007  0.232066E+007
  2165.81        801710.       0.332562E+011   5175.46       0.531742E+007  0.231452E+007
  2197.44        801710.       0.334371E+011   5172.92       0.531225E+007  0.230838E+007
  2229.06        801710.       0.336180E+011   5170.37       0.530708E+007  0.230223E+007
  2260.69        801710.       0.337989E+011   5167.82       0.530189E+007  0.229607E+007
  2292.32        801710.       0.339799E+011   5165.26       0.529671E+007  0.228990E+007
  2323.94        801710.       0.341608E+011   5162.71       0.529152E+007  0.228373E+007
  2355.57        801710.       0.343417E+011   5160.14       0.528632E+007  0.227755E+007
  2387.19        801710.       0.345226E+011   5157.58       0.528112E+007  0.227136E+007
  2418.82        801710.       0.347034E+011   5155.01       0.527592E+007  0.226516E+007
  2450.44        801710.       0.348843E+011   5152.43       0.527071E+007  0.225896E+007
  2482.07        801710.       0.350652E+011   5149.86       0.526550E+007  0.225275E+007
  2513.69        801710.       0.352460E+011   5147.28       0.526028E+007  0.224653E+007
  2545.32        801710.       0.354268E+011   5144.69       0.525506E+007  0.224031E+007
  2576.95        801710.       0.356076E+011   5142.10       0.524984E+007  0.223408E+007
  2608.57        801710.       0.357884E+011   5139.51       0.524461E+007  0.222784E+007
  2640.20        801710.       0.359691E+011   5136.92       0.523937E+007  0.222159E+007
  2671.82        801710.       0.361499E+011   5134.32       0.523414E+007  0.221534E+007
  2703.45        801710.       0.363306E+011   5131.72       0.522889E+007  0.220908E+007
  2735.07        801710.       0.365112E+011   5129.11       0.522365E+007  0.220281E+007
  2766.70        801710.       0.366918E+011   5126.50       0.521840E+007  0.219654E+007
  1533.30        813676.       0.308854E+011   5237.28       0.546263E+007  0.244857E+007
  1564.93        813676.       0.310649E+011   5234.84       0.545760E+007  0.244263E+007
  1596.55        813676.       0.312445E+011   5232.39       0.545255E+007  0.243667E+007
  1628.18        813676.       0.314242E+011   5229.94       0.544750E+007  0.243071E+007
  1659.80        813676.       0.316041E+011   5227.49       0.544244E+007  0.242474E+007
  1691.43        813676.       0.317841E+011   5225.03       0.543737E+007  0.241876E+007
  1723.05        813676.       0.319642E+011   5222.56       0.543230E+007  0.241276E+007
  1754.68        813676.       0.321444E+011   5220.09       0.542722E+007  0.240676E+007
  1786.31        813676.       0.323247E+011   5217.62       0.542213E+007  0.240074E+007
  1817.93        813676.       0.325050E+011   5215.14       0.541704E+007  0.239472E+007
  1849.56        813676.       0.326854E+011   5212.66       0.541194E+007  0.238869E+007
  1881.18        813676.       0.328659E+011   5210.17       0.540684E+007  0.238265E+007
  1912.81        813676.       0.330464E+011   5207.67       0.540172E+007  0.237660E+007
  1944.43        813676.       0.332270E+011   5205.18       0.539661E+007  0.237054E+007
  1976.06        813676.       0.334076E+011   5202.68       0.539148E+007  0.236447E+007
  2007.68        813676.       0.335883E+011   5200.17       0.538636E+007  0.235839E+007
  2039.31        813676.       0.337690E+011   5197.66       0.538122E+007  0.235231E+007
  2070.94        813676.       0.339497E+011   5195.15       0.537609E+007  0.234622E+007
  2102.56        813676.       0.341305E+011   5192.63       0.537094E+007  0.234012E+007
  2134.19        813676.       0.343112E+011   5190.11       0.536579E+007  0.233401E+007
  2165.81        813676.       0.344920E+011   5187.59       0.536064E+007  0.232789E+007
  2197.44        813676.       0.346728E+011   5185.06       0.535548E+007  0.232177E+007
  2229.06        813676.       0.348536E+011   5182.53       0.535031E+007  0.231564E+007
  2260.69        813676.       0.350344E+011   5179.99       0.534515E+007  0.230950E+007
  2292.32        813676.       0.352152E+011   5177.45       0.533997E+007  0.230335E+007
  2323.94        813676.       0.353960E+011   5174.91       0.533480E+007  0.229720E+007
  2355.57        813676.       0.355768E+011   5172.36       0.532962E+007  0.229104E+007
  2387.19        813676.       0.357576E+011   5169.81       0.532443E+007  0.228487E+007
  2418.82        813676.       0.359384E+011   5167.25       0.531924E+007  0.227869E+007
  2450.44        813676.       0.361191E+011   5164.70       0.531404E+007  0.227251E+007
  2482.07        813676.       0.362999E+011   5162.13       0.530885E+007  0.226632E+007
  2513.69        813676.       0.364806E+011   5159.57       0.530364E+007  0.226013E+007
  2545.32        813676.       0.366613E+011   5157.00       0.529843E+007  0.225392E+007
  2576.95        813676.       0.368420E+011   5154.43       0.529320E+007  0.224771E+007
  2608.57        813676.       0.370227E+011   5151.85       0.528801E+007  0.224149E+007
  2640.20        813676.       0.372033E+011   5149.27       0.528279E+007  0.223527E+007
  2671.82        813676.       0.373839E+011   5146.69       0.527756E+007  0.222904E+007
  2703.45        813676.       0.375645E+011   5144.10       0.527234E+007  0.222280E+007
  2735.07        813676.       0.377450E+011   5141.51       0.526710E+007  0.221655E+007
  2766.70        813676.       0.379256E+011   5138.92       0.526187E+007  0.221030E+007
  1533.30        825642.       0.321259E+011   5249.06       0.550554E+007  0.246148E+007
  1564.93        825642.       0.323052E+011   5246.63       0.550052E+007  0.245556E+007
  1596.55        825642.       0.324847E+011   5244.20       0.549548E+007  0.244963E+007
  1628.18        825642.       0.326644E+011   5241.76       0.549044E+007  0.244368E+007
  1659.80        825642.       0.328441E+011   5239.32       0.548540E+007  0.243773E+007
  1691.43        825642.       0.330240E+011   5236.87       0.548034E+007  0.243176E+007
  1723.05        825642.       0.332040E+011   5234.42       0.547528E+007  0.242579E+007
  1754.68        825642.       0.333841E+011   5231.96       0.547021E+007  0.241980E+007
  1786.31        825642.       0.335642E+011   5229.50       0.546514E+007  0.241381E+007
  1817.93        825642.       0.337445E+011   5227.04       0.546006E+007  0.240780E+007
  1849.56        825642.       0.339248E+011   5224.57       0.545497E+007  0.240179E+007
  1881.18        825642.       0.341052E+011   5222.09       0.544988E+007  0.239577E+007
  1912.81        825642.       0.342856E+011   5219.62       0.544478E+007  0.238974E+007
  1944.43        825642.       0.344661E+011   5217.13       0.543967E+007  0.238370E+007
  1976.06        825642.       0.346466E+011   5214.65       0.543456E+007  0.237765E+007
  2007.68        825642.       0.348271E+011   5212.16       0.542944E+007  0.237159E+007
  2039.31        825642.       0.350077E+011   5209.66       0.542432E+007  0.236553E+007
  2070.94        825642.       0.351884E+011   5207.16       0.541920E+007  0.235945E+007
  2102.56        825642.       0.353690E+011   5204.66       0.541407E+007  0.235337E+007
  2134.19        825642.       0.355497E+011   5202.15       0.540893E+007  0.234729E+007
  2165.81        825642.       0.357303E+011   5199.64       0.540379E+007  0.234119E+007
  2197.44        825642.       0.359110E+011   5197.13       0.539864E+007  0.233508E+007
  2229.06        825642.       0.360917E+011   5194.61       0.539349E+007  0.232897E+007
  2260.69        825642.       0.362724E+011   5192.09       0.538834E+007  0.232285E+007
  2292.32        825642.       0.364531E+011   5189.56       0.538316E+007  0.231673E+007
  2323.94        825642.       0.366338E+011   5187.03       0.537801E+007  0.231059E+007
  2355.57        825642.       0.368145E+011   5184.50       0.537284E+007  0.230445E+007
  2387.19        825642.       0.369952E+011   5181.96       0.536767E+007  0.229831E+007
  2418.82        825642.       0.371758E+011   5179.42       0.536249E+007  0.229215E+007
  2450.44        825642.       0.373565E+011   5176.88       0.535731E+007  0.228599E+007
  2482.07        825642.       0.375371E+011   5174.33       0.535213E+007  0.227982E+007
  2513.69        825642.       0.377178E+011   5171.78       0.534696E+007  0.227364E+007
  2545.32        825642.       0.378984E+011   5169.23       0.534174E+007  0.226746E+007
  2576.95        825642.       0.380790E+011   5166.67       0.533654E+007  0.226127E+007
  2608.57        825642.       0.382595E+011   5164.11       0.533134E+007  0.225507E+007
  2640.20        825642.       0.384400E+011   5161.54       0.532614E+007  0.224887E+007
  2671.82        825642.       0.386206E+011   5158.98       0.532093E+007  0.224266E+007
  2703.45        825642.       0.388010E+011   5156.40       0.531571E+007  0.223644E+007
  2735.07        825642.       0.389815E+011   5153.83       0.531049E+007  0.223022E+007
  2766.70        825642.       0.391619E+011   5151.25       0.530527E+007  0.222399E+007
  1533.30        837607.       0.333687E+011   5260.77       0.554839E+007  0.247433E+007
  1564.93        837607.       0.335480E+011   5258.35       0.554338E+007  0.246843E+007
  1596.55        837607.       0.337274E+011   5255.93       0.553836E+007  0.246251E+007
  1628.18        837607.       0.339069E+011   5253.51       0.553333E+007  0.245659E+007
  1659.80        837607.       0.340866E+011   5251.08       0.552830E+007  0.245065E+007
  1691.43        837607.       0.342664E+011   5248.65       0.552325E+007  0.244471E+007
  1723.05        837607.       0.344462E+011   5246.21       0.551820E+007  0.243875E+007
  1754.68        837607.       0.346262E+011   5243.77       0.551315E+007  0.243278E+007
  1786.31        837607.       0.348063E+011   5241.32       0.550808E+007  0.242681E+007
  1817.93        837607.       0.349864E+011   5238.87       0.550301E+007  0.242082E+007
  1849.56        837607.       0.351666E+011   5236.41       0.549794E+007  0.241483E+007
  1881.18        837607.       0.353469E+011   5233.95       0.549286E+007  0.240882E+007
  1912.81        837607.       0.355272E+011   5231.49       0.548777E+007  0.240281E+007
  1944.43        837607.       0.357076E+011   5229.02       0.548268E+007  0.239679E+007
  1976.06        837607.       0.358880E+011   5226.54       0.547758E+007  0.239076E+007
  2007.68        837607.       0.360685E+011   5224.07       0.547247E+007  0.238472E+007
  2039.31        837607.       0.362489E+011   5221.59       0.546737E+007  0.237867E+007
  2070.94        837607.       0.364295E+011   5219.10       0.546225E+007  0.237262E+007
  2102.56        837607.       0.366100E+011   5216.61       0.545713E+007  0.236656E+007
  2134.19        837607.       0.367906E+011   5214.12       0.545201E+007  0.236049E+007
  2165.81        837607.       0.369711E+011   5211.62       0.544688E+007  0.235441E+007
  2197.44        837607.       0.371517E+011   5209.12       0.544175E+007  0.234833E+007
  2229.06        837607.       0.373323E+011   5206.62       0.543662E+007  0.234224E+007
  2260.69        837607.       0.375129E+011   5204.11       0.543147E+007  0.233614E+007
  2292.32        837607.       0.376935E+011   5201.60       0.542632E+007  0.233003E+007
  2323.94        837607.       0.378741E+011   5199.08       0.542117E+007  0.232392E+007
  2355.57        837607.       0.380547E+011   5196.57       0.541601E+007  0.231779E+007
  2387.19        837607.       0.382353E+011   5194.04       0.541085E+007  0.231167E+007
  2418.82        837607.       0.384158E+011   5191.52       0.540569E+007  0.230553E+007
  2450.44        837607.       0.385964E+011   5188.99       0.540052E+007  0.229939E+007
  2482.07        837607.       0.387769E+011   5186.46       0.539534E+007  0.229324E+007
  2513.69        837607.       0.389575E+011   5183.92       0.539017E+007  0.228708E+007
  2545.32        837607.       0.391380E+011   5181.38       0.538499E+007  0.228092E+007
  2576.95        837607.       0.393185E+011   5178.84       0.537980E+007  0.227475E+007
  2608.57        837607.       0.394989E+011   5176.29       0.537461E+007  0.226858E+007
  2640.20        837607.       0.396793E+011   5173.74       0.536942E+007  0.226239E+007
  2671.82        837607.       0.398598E+011   5171.19       0.536422E+007  0.225620E+007
  2703.45        837607.       0.400401E+011   5168.63       0.535902E+007  0.225001E+007
  2735.07        837607.       0.402205E+011   5166.07       0.535382E+007  0.224380E+007
  2766.70        837607.       0.404008E+011   5163.51       0.534861E+007  0.223759E+007
  1533.30        849573.       0.346140E+011   5272.41       0.559119E+007  0.248712E+007
  1564.93        849573.       0.347931E+011   5270.01       0.558619E+007  0.248123E+007
  1596.55        849573.       0.349724E+011   5267.60       0.558117E+007  0.247533E+007
  1628.18        849573.       0.351518E+011   5265.19       0.557616E+007  0.246943E+007
  1659.80        849573.       0.353314E+011   5262.78       0.557114E+007  0.246351E+007
  1691.43        849573.       0.355111E+011   5260.35       0.556611E+007  0.245758E+007
  1723.05        849573.       0.356909E+011   5257.93       0.556107E+007  0.245164E+007
  1754.68        849573.       0.358707E+011   5255.50       0.555602E+007  0.244569E+007
  1786.31        849573.       0.360507E+011   5253.07       0.555097E+007  0.243973E+007
  1817.93        849573.       0.362307E+011   5250.63       0.554591E+007  0.243377E+007
  1849.56        849573.       0.364108E+011   5248.18       0.554085E+007  0.242779E+007
  1881.18        849573.       0.365910E+011   5245.74       0.553578E+007  0.242181E+007
  1912.81        849573.       0.367712E+011   5243.29       0.553071E+007  0.241581E+007
  1944.43        849573.       0.369515E+011   5240.83       0.552562E+007  0.240981E+007
  1976.06        849573.       0.371318E+011   5238.37       0.552054E+007  0.240380E+007
  2007.68        849573.       0.373122E+011   5235.91       0.551545E+007  0.239778E+007
  2039.31        849573.       0.374926E+011   5233.44       0.551035E+007  0.239175E+007
  2070.94        849573.       0.376730E+011   5230.97       0.550525E+007  0.238572E+007
  2102.56        849573.       0.378534E+011   5228.49       0.550014E+007  0.237967E+007
  2134.19        849573.       0.380339E+011   5226.01       0.549503E+007  0.237362E+007
  2165.81        849573.       0.382144E+011   5223.53       0.548991E+007  0.236757E+007
  2197.44        849573.       0.383949E+011   5221.04       0.548479E+007  0.236150E+007
  2229.06        849573.       0.385754E+011   5218.55       0.547966E+007  0.235543E+007
  2260.69        849573.       0.387559E+011   5216.06       0.547453E+007  0.234935E+007
  2292.32        849573.       0.389364E+011   5213.56       0.546940E+007  0.234326E+007
  2323.94        849573.       0.391169E+011   5211.06       0.546426E+007  0.233717E+007
  2355.57        849573.       0.392974E+011   5208.56       0.545912E+007  0.233106E+007
  2387.19        849573.       0.394779E+011   5206.05       0.545397E+007  0.232496E+007
  2418.82        849573.       0.396583E+011   5203.54       0.544882E+007  0.231884E+007
  2450.44        849573.       0.398388E+011   5201.02       0.544366E+007  0.231272E+007
  2482.07        849573.       0.400192E+011   5198.51       0.543850E+007  0.230659E+007
  2513.69        849573.       0.401997E+011   5195.98       0.543334E+007  0.230045E+007
  2545.32        849573.       0.403801E+011   5193.46       0.542817E+007  0.229431E+007
  2576.95        849573.       0.405605E+011   5190.93       0.542300E+007  0.228816E+007
  2608.57        849573.       0.407408E+011   5188.40       0.541782E+007  0.228200E+007
  2640.20        849573.       0.409212E+011   5185.86       0.541264E+007  0.227584E+007
  2671.82        849573.       0.411015E+011   5183.32       0.540746E+007  0.226967E+007
  2703.45        849573.       0.412818E+011   5180.78       0.540227E+007  0.226349E+007
  2735.07        849573.       0.414620E+011   5178.24       0.539708E+007  0.225731E+007
  2766.70        849573.       0.416422E+011   5175.69       0.539188E+007  0.225112E+007
  1533.30        861539.       0.358615E+011   5283.98       0.563393E+007  0.249984E+007
  1564.93        861539.       0.360406E+011   5281.60       0.562894E+007  0.249397E+007
  1596.55        861539.       0.362198E+011   5279.20       0.562394E+007  0.248809E+007
  1628.18        861539.       0.363991E+011   5276.80       0.561894E+007  0.248220E+007
  1659.80        861539.       0.365786E+011   5274.40       0.561393E+007  0.247630E+007
  1691.43        861539.       0.367582E+011   5271.99       0.560891E+007  0.247039E+007
  1723.05        861539.       0.369378E+011   5269.58       0.560388E+007  0.246447E+007
  1754.68        861539.       0.371176E+011   5267.17       0.559885E+007  0.245854E+007
  1786.31        861539.       0.372975E+011   5264.74       0.559380E+007  0.245260E+007
  1817.93        861539.       0.374774E+011   5262.32       0.558876E+007  0.244665E+007
  1849.56        861539.       0.376574E+011   5259.89       0.558371E+007  0.244069E+007
  1881.18        861539.       0.378375E+011   5257.45       0.557862E+007  0.243472E+007
  1912.81        861539.       0.380176E+011   5255.02       0.557358E+007  0.242875E+007
  1944.43        861539.       0.381978E+011   5252.57       0.556851E+007  0.242276E+007
  1976.06        861539.       0.383781E+011   5250.13       0.556344E+007  0.241677E+007
  2007.68        861539.       0.385583E+011   5247.68       0.555836E+007  0.241077E+007
  2039.31        861539.       0.387386E+011   5245.22       0.555327E+007  0.240476E+007
  2070.94        861539.       0.389189E+011   5242.76       0.554818E+007  0.239874E+007
  2102.56        861539.       0.390993E+011   5240.30       0.554309E+007  0.239272E+007
  2134.19        861539.       0.392797E+011   5237.84       0.553799E+007  0.238669E+007
  2165.81        861539.       0.394601E+011   5235.37       0.553288E+007  0.238065E+007
  2197.44        861539.       0.396404E+011   5232.90       0.552777E+007  0.237460E+007
  2229.06        861539.       0.398209E+011   5230.42       0.552266E+007  0.236855E+007
  2260.69        861539.       0.400013E+011   5227.94       0.551754E+007  0.236249E+007
  2292.32        861539.       0.401817E+011   5225.46       0.551242E+007  0.235642E+007
  2323.94        861539.       0.403621E+011   5222.97       0.550729E+007  0.235034E+007
  2355.57        861539.       0.405425E+011   5220.48       0.550216E+007  0.234426E+007
  2387.19        861539.       0.407229E+011   5217.98       0.549695E+007  0.233817E+007
  2418.82        861539.       0.409033E+011   5215.49       0.549189E+007  0.233208E+007
  2450.44        861539.       0.410836E+011   5212.99       0.548674E+007  0.232597E+007
  2482.07        861539.       0.412640E+011   5210.48       0.548157E+007  0.231986E+007
  2513.69        861539.       0.414443E+011   5207.97       0.547644E+007  0.231375E+007
  2545.32        861539.       0.416246E+011   5205.46       0.547129E+007  0.230762E+007
  2576.95        861539.       0.418049E+011   5202.95       0.546613E+007  0.230149E+007
  2608.57        861539.       0.419852E+011   5200.43       0.546105E+007  0.229536E+007
  2640.20        861539.       0.421655E+011   5197.91       0.545580E+007  0.228921E+007
  2671.82        861539.       0.423457E+011   5195.38       0.545063E+007  0.228306E+007
  2703.45        861539.       0.425259E+011   5192.86       0.544545E+007  0.227691E+007
  2735.07        861539.       0.427060E+011   5190.33       0.544027E+007  0.227075E+007
  2766.70        861539.       0.428861E+011   5187.79       0.543509E+007  0.226458E+007
  1533.30        873505.       0.371114E+011   5295.49       0.567662E+007  0.251249E+007
  1564.93        873505.       0.372904E+011   5293.12       0.567164E+007  0.250664E+007
  1596.55        873505.       0.374695E+011   5290.74       0.566666E+007  0.250078E+007
  1628.18        873505.       0.376487E+011   5288.35       0.566166E+007  0.249491E+007
  1659.80        873505.       0.378281E+011   5285.96       0.565666E+007  0.248903E+007
  1691.43        873505.       0.380076E+011   5283.57       0.565165E+007  0.248313E+007
  1723.05        873505.       0.381872E+011   5281.17       0.564664E+007  0.247723E+007
  1754.68        873505.       0.383668E+011   5278.76       0.564161E+007  0.247132E+007
  1786.31        873505.       0.385466E+011   5276.36       0.563658E+007  0.246539E+007
  1817.93        873505.       0.387265E+011   5273.94       0.563155E+007  0.245946E+007
  1849.56        873505.       0.389064E+011   5271.53       0.562651E+007  0.245352E+007
  1881.18        873505.       0.390864E+011   5269.10       0.562146E+007  0.244757E+007
  1912.81        873505.       0.392664E+011   5266.68       0.561641E+007  0.244162E+007
  1944.43        873505.       0.394465E+011   5264.25       0.561135E+007  0.243565E+007
  1976.06        873505.       0.396266E+011   5261.82       0.560629E+007  0.242968E+007
  2007.68        873505.       0.398068E+011   5259.38       0.560122E+007  0.242369E+007
  2039.31        873505.       0.399870E+011   5256.94       0.559614E+007  0.241770E+007
  2070.94        873505.       0.401673E+011   5254.49       0.559106E+007  0.241170E+007
  2102.56        873505.       0.403475E+011   5252.05       0.558599E+007  0.240570E+007
  2134.19        873505.       0.405278E+011   5249.59       0.558089E+007  0.239969E+007
  2165.81        873505.       0.407081E+011   5247.14       0.557580E+007  0.239366E+007
  2197.44        873505.       0.408884E+011   5244.68       0.557070E+007  0.238764E+007
  2229.06        873505.       0.410687E+011   5242.21       0.556560E+007  0.238160E+007
  2260.69        873505.       0.412491E+011   5239.75       0.556049E+007  0.237556E+007
  2292.32        873505.       0.414294E+011   5237.28       0.555538E+007  0.236951E+007
  2323.94        873505.       0.416097E+011   5234.80       0.555027E+007  0.236345E+007
  2355.57        873505.       0.417900E+011   5232.33       0.554515E+007  0.235739E+007
  2387.19        873505.       0.419703E+011   5229.85       0.554002E+007  0.235132E+007
  2418.82        873505.       0.421506E+011   5227.36       0.553490E+007  0.234524E+007
  2450.44        873505.       0.423309E+011   5224.88       0.552976E+007  0.233916E+007
  2482.07        873505.       0.425112E+011   5222.39       0.552463E+007  0.233307E+007
  2513.69        873505.       0.426914E+011   5219.89       0.551949E+007  0.232697E+007
  2545.32        873505.       0.428717E+011   5217.39       0.551435E+007  0.232086E+007
  2576.95        873505.       0.430519E+011   5214.89       0.550920E+007  0.231475E+007
  2608.57        873505.       0.432320E+011   5212.39       0.550405E+007  0.230864E+007
  2640.20        873505.       0.434122E+011   5209.88       0.549889E+007  0.230251E+007
  2671.82        873505.       0.435923E+011   5207.37       0.549373E+007  0.229638E+007
  2703.45        873505.       0.437724E+011   5204.86       0.548856E+007  0.229025E+007
  2735.07        873505.       0.439525E+011   5202.34       0.548341E+007  0.228411E+007
  2766.70        873505.       0.441325E+011   5199.82       0.547810E+007  0.227796E+007
  1533.30        885471.       0.383636E+011   5306.94       0.571926E+007  0.252509E+007
  1564.93        885471.       0.385425E+011   5304.58       0.571429E+007  0.251925E+007
  1596.55        885471.       0.387215E+011   5302.21       0.570931E+007  0.251341E+007
  1628.18        885471.       0.389006E+011   5299.84       0.570433E+007  0.250756E+007
  1659.80        885471.       0.390799E+011   5297.46       0.569934E+007  0.250169E+007
  1691.43        885471.       0.392593E+011   5295.08       0.569434E+007  0.249581E+007
  1723.05        885471.       0.394388E+011   5292.69       0.568934E+007  0.248993E+007
  1754.68        885471.       0.396184E+011   5290.30       0.568432E+007  0.248403E+007
  1786.31        885471.       0.397981E+011   5287.90       0.567931E+007  0.247813E+007
  1817.93        885471.       0.399778E+011   5285.50       0.567428E+007  0.247221E+007
  1849.56        885471.       0.401576E+011   5283.10       0.566925E+007  0.246629E+007
  1881.18        885471.       0.403375E+011   5280.69       0.566422E+007  0.246036E+007
  1912.81        885471.       0.405175E+011   5278.28       0.565917E+007  0.245442E+007
  1944.43        885471.       0.406975E+011   5275.86       0.565413E+007  0.244847E+007
  1976.06        885471.       0.408776E+011   5273.44       0.564908E+007  0.244251E+007
  2007.68        885471.       0.410576E+011   5271.01       0.564402E+007  0.243655E+007
  2039.31        885471.       0.412378E+011   5268.59       0.563895E+007  0.243058E+007
  2070.94        885471.       0.414179E+011   5266.15       0.563390E+007  0.242460E+007
  2102.56        885471.       0.415981E+011   5263.72       0.562881E+007  0.241861E+007
  2134.19        885471.       0.417783E+011   5261.28       0.562374E+007  0.241261E+007
  2165.81        885471.       0.419585E+011   5258.84       0.561866E+007  0.240661E+007
  2197.44        885471.       0.421387E+011   5256.39       0.561357E+007  0.240060E+007
  2229.06        885471.       0.423190E+011   5253.94       0.560848E+007  0.239458E+007
  2260.69        885471.       0.424992E+011   5251.49       0.560338E+007  0.238856E+007
  2292.32        885471.       0.426794E+011   5249.03       0.559829E+007  0.238253E+007
  2323.94        885471.       0.428597E+011   5246.57       0.559318E+007  0.237649E+007
  2355.57        885471.       0.430399E+011   5244.11       0.558807E+007  0.237045E+007
  2387.19        885471.       0.432201E+011   5241.64       0.558296E+007  0.236439E+007
  2418.82        885471.       0.434004E+011   5239.17       0.557785E+007  0.235834E+007
  2450.44        885471.       0.435806E+011   5236.70       0.557273E+007  0.235227E+007
  2482.07        885471.       0.437607E+011   5234.22       0.556760E+007  0.234620E+007
  2513.69        885471.       0.439409E+011   5231.74       0.556248E+007  0.234012E+007
  2545.32        885471.       0.441211E+011   5229.25       0.555734E+007  0.233404E+007
  2576.95        885471.       0.443012E+011   5226.77       0.555221E+007  0.232794E+007
  2608.57        885471.       0.444813E+011   5224.28       0.554707E+007  0.232185E+007
  2640.20        885471.       0.446614E+011   5221.78       0.554190E+007  0.231574E+007
  2671.82        885471.       0.448414E+011   5219.29       0.553678E+007  0.230963E+007
  2703.45        885471.       0.450214E+011   5216.79       0.553163E+007  0.230351E+007
  2735.07        885471.       0.452014E+011   5214.29       0.552648E+007  0.229739E+007
  2766.70        885471.       0.453814E+011   5211.78       0.552132E+007  0.229126E+007
  1533.30        897437.       0.396180E+011   5318.32       0.576184E+007  0.253762E+007
  1564.93        897437.       0.397968E+011   5315.97       0.575689E+007  0.253180E+007
  1596.55        897437.       0.399757E+011   5313.62       0.575192E+007  0.252598E+007
  1628.18        897437.       0.401548E+011   5311.26       0.574695E+007  0.252014E+007
  1659.80        897437.       0.403339E+011   5308.89       0.574197E+007  0.251429E+007
  1691.43        897437.       0.405132E+011   5306.52       0.573698E+007  0.250843E+007
  1723.05        897437.       0.406927E+011   5304.14       0.573198E+007  0.250256E+007
  1754.68        897437.       0.408722E+011   5301.77       0.572700E+007  0.249668E+007
  1786.31        897437.       0.410518E+011   5299.38       0.572198E+007  0.249080E+007
  1817.93        897437.       0.412314E+011   5296.99       0.571696E+007  0.248490E+007
  1849.56        897437.       0.414112E+011   5294.60       0.571194E+007  0.247899E+007
  1881.18        897437.       0.415910E+011   5292.21       0.570692E+007  0.247308E+007
  1912.81        897437.       0.417709E+011   5289.81       0.570189E+007  0.246716E+007
  1944.43        897437.       0.419508E+011   5287.40       0.569685E+007  0.246123E+007
  1976.06        897437.       0.421308E+011   5284.99       0.569181E+007  0.245529E+007
  2007.68        897437.       0.423108E+011   5282.58       0.568676E+007  0.244934E+007
  2039.31        897437.       0.424908E+011   5280.17       0.568171E+007  0.244339E+007
  2070.94        897437.       0.426709E+011   5277.75       0.567666E+007  0.243742E+007
  2102.56        897437.       0.428510E+011   5275.33       0.567159E+007  0.243145E+007
  2134.19        897437.       0.430311E+011   5272.90       0.566653E+007  0.242548E+007
  2165.81        897437.       0.432112E+011   5270.47       0.566146E+007  0.241949E+007
  2197.44        897437.       0.433914E+011   5268.04       0.565638E+007  0.241350E+007
  2229.06        897437.       0.435715E+011   5265.60       0.565130E+007  0.240750E+007
  2260.69        897437.       0.437517E+011   5263.16       0.564622E+007  0.240149E+007
  2292.32        897437.       0.439318E+011   5260.72       0.564113E+007  0.239548E+007
  2323.94        897437.       0.441120E+011   5258.27       0.563604E+007  0.238946E+007
  2355.57        897437.       0.442922E+011   5255.82       0.563094E+007  0.238343E+007
  2387.19        897437.       0.444723E+011   5253.36       0.562584E+007  0.237740E+007
  2418.82        897437.       0.446524E+011   5250.91       0.562074E+007  0.237136E+007
  2450.44        897437.       0.448326E+011   5248.45       0.561563E+007  0.236531E+007
  2482.07        897437.       0.450127E+011   5245.98       0.561044E+007  0.235926E+007
  2513.69        897437.       0.451927E+011   5243.52       0.560540E+007  0.235320E+007
  2545.32        897437.       0.453728E+011   5241.05       0.560028E+007  0.234714E+007
  2576.95        897437.       0.455529E+011   5238.57       0.559516E+007  0.234106E+007
  2608.57        897437.       0.457329E+011   5236.10       0.559003E+007  0.233498E+007
  2640.20        897437.       0.459129E+011   5233.62       0.558490E+007  0.232890E+007
  2671.82        897437.       0.460928E+011   5231.13       0.557977E+007  0.232281E+007
  2703.45        897437.       0.462728E+011   5228.65       0.557463E+007  0.231671E+007
  2735.07        897437.       0.464527E+011   5226.16       0.556949E+007  0.231061E+007
  2766.70        897437.       0.466326E+011   5223.66       0.556435E+007  0.230450E+007
  1533.30        909402.       0.408746E+011   5329.64       0.580438E+007  0.255009E+007
  1564.93        909402.       0.410533E+011   5327.30       0.579943E+007  0.254429E+007
  1596.55        909402.       0.412322E+011   5324.96       0.579447E+007  0.253848E+007
  1628.18        909402.       0.414111E+011   5322.61       0.578951E+007  0.253266E+007
  1659.80        909402.       0.415902E+011   5320.26       0.578454E+007  0.252683E+007
  1691.43        909402.       0.417695E+011   5317.90       0.577956E+007  0.252099E+007
  1723.05        909402.       0.419488E+011   5315.54       0.577458E+007  0.251513E+007
  1754.68        909402.       0.421282E+011   5313.17       0.576959E+007  0.250927E+007
  1786.31        909402.       0.423077E+011   5310.80       0.576459E+007  0.250340E+007
  1817.93        909402.       0.424873E+011   5308.42       0.575959E+007  0.249752E+007
  1849.56        909402.       0.426670E+011   5306.04       0.575458E+007  0.249163E+007
  1881.18        909402.       0.428467E+011   5303.66       0.574957E+007  0.248574E+007
  1912.81        909402.       0.430265E+011   5301.27       0.574455E+007  0.247983E+007
  1944.43        909402.       0.432064E+011   5298.88       0.573952E+007  0.247392E+007
  1976.06        909402.       0.433863E+011   5296.49       0.573449E+007  0.246800E+007
  2007.68        909402.       0.435662E+011   5294.09       0.572946E+007  0.246207E+007
  2039.31        909402.       0.437461E+011   5291.68       0.572442E+007  0.245613E+007
  2070.94        909402.       0.439261E+011   5289.28       0.571937E+007  0.245018E+007
  2102.56        909402.       0.441062E+011   5286.87       0.571432E+007  0.244423E+007
  2134.19        909402.       0.442862E+011   5284.45       0.570926E+007  0.243827E+007
  2165.81        909402.       0.444663E+011   5282.04       0.570420E+007  0.243230E+007
  2197.44        909402.       0.446463E+011   5279.62       0.569914E+007  0.242633E+007
  2229.06        909402.       0.448264E+011   5277.19       0.569407E+007  0.242035E+007
  2260.69        909402.       0.450065E+011   5274.76       0.568900E+007  0.241436E+007
  2292.32        909402.       0.451866E+011   5272.33       0.568392E+007  0.240837E+007
  2323.94        909402.       0.453666E+011   5269.90       0.567884E+007  0.240236E+007
  2355.57        909402.       0.455467E+011   5267.46       0.567376E+007  0.239636E+007
  2387.19        909402.       0.457268E+011   5265.02       0.566867E+007  0.239034E+007
  2418.82        909402.       0.459068E+011   5262.58       0.566358E+007  0.238432E+007
  2450.44        909402.       0.460869E+011   5260.13       0.565848E+007  0.237829E+007
  2482.07        909402.       0.462669E+011   5257.68       0.565338E+007  0.237226E+007
  2513.69        909402.       0.464469E+011   5255.22       0.564827E+007  0.236621E+007
  2545.32        909402.       0.466269E+011   5252.77       0.564317E+007  0.236017E+007
  2576.95        909402.       0.468069E+011   5250.31       0.563806E+007  0.235411E+007
  2608.57        909402.       0.469868E+011   5247.84       0.563294E+007  0.234805E+007
  2640.20        909402.       0.471667E+011   5245.38       0.562782E+007  0.234199E+007
  2671.82        909402.       0.473466E+011   5242.91       0.562270E+007  0.233591E+007
  2703.45        909402.       0.475265E+011   5240.43       0.561757E+007  0.232983E+007
  2735.07        909402.       0.477063E+011   5237.96       0.561244E+007  0.232375E+007
  2766.70        909402.       0.478861E+011   5235.48       0.560731E+007  0.231766E+007
  1533.30        921368.       0.421335E+011   5340.90       0.584686E+007  0.256250E+007
  1564.93        921368.       0.423121E+011   5338.58       0.584192E+007  0.255672E+007
  1596.55        921368.       0.424908E+011   5336.24       0.583698E+007  0.255092E+007
  1628.18        921368.       0.426697E+011   5333.91       0.583203E+007  0.254512E+007
  1659.80        921368.       0.428487E+011   5331.56       0.582707E+007  0.253930E+007
  1691.43        921368.       0.430279E+011   5329.22       0.582210E+007  0.253348E+007
  1723.05        921368.       0.432071E+011   5326.87       0.581713E+007  0.252764E+007
  1754.68        921368.       0.433865E+011   5324.51       0.581215E+007  0.252180E+007
  1786.31        921368.       0.435659E+011   5322.15       0.580716E+007  0.251594E+007
  1817.93        921368.       0.437454E+011   5319.79       0.580217E+007  0.251008E+007
  1849.56        921368.       0.439250E+011   5317.42       0.579717E+007  0.250421E+007
  1881.18        921368.       0.441047E+011   5315.05       0.579216E+007  0.249833E+007
  1912.81        921368.       0.442844E+011   5312.68       0.578715E+007  0.249244E+007
  1944.43        921368.       0.444642E+011   5310.30       0.578214E+007  0.248654E+007
  1976.06        921368.       0.446440E+011   5307.91       0.577712E+007  0.248064E+007
  2007.68        921368.       0.448238E+011   5305.53       0.577209E+007  0.247473E+007
  2039.31        921368.       0.450037E+011   5303.13       0.576706E+007  0.246881E+007
  2070.94        921368.       0.451836E+011   5300.74       0.576203E+007  0.246288E+007
  2102.56        921368.       0.453636E+011   5298.34       0.575699E+007  0.245695E+007
  2134.19        921368.       0.455435E+011   5295.94       0.575195E+007  0.245100E+007
  2165.81        921368.       0.457235E+011   5293.54       0.574690E+007  0.244505E+007
  2197.44        921368.       0.459035E+011   5291.13       0.574183E+007  0.243910E+007
  2229.06        921368.       0.460835E+011   5288.72       0.573680E+007  0.243313E+007
  2260.69        921368.       0.462635E+011   5286.30       0.573173E+007  0.242716E+007
  2292.32        921368.       0.464435E+011   5283.88       0.572666E+007  0.242118E+007
  2323.94        921368.       0.466235E+011   5281.46       0.572159E+007  0.241520E+007
  2355.57        921368.       0.468035E+011   5279.04       0.571652E+007  0.240921E+007
  2387.19        921368.       0.469835E+011   5276.61       0.571144E+007  0.240321E+007
  2418.82        921368.       0.471635E+011   5274.18       0.570636E+007  0.239721E+007
  2450.44        921368.       0.473435E+011   5271.74       0.570127E+007  0.239120E+007
  2482.07        921368.       0.475235E+011   5269.31       0.569618E+007  0.238518E+007
  2513.69        921368.       0.477034E+011   5266.86       0.569109E+007  0.237916E+007
  2545.32        921368.       0.478833E+011   5264.42       0.568599E+007  0.237313E+007
  2576.95        921368.       0.480632E+011   5261.97       0.568089E+007  0.236709E+007
  2608.57        921368.       0.482431E+011   5259.52       0.567579E+007  0.236105E+007
  2640.20        921368.       0.484229E+011   5257.07       0.567068E+007  0.235500E+007
  2671.82        921368.       0.486027E+011   5254.61       0.566557E+007  0.234895E+007
  2703.45        921368.       0.487825E+011   5252.15       0.566046E+007  0.234289E+007
  2735.07        921368.       0.489623E+011   5249.69       0.565530E+007  0.233682E+007
  2766.70        921368.       0.491420E+011   5247.23       0.565022E+007  0.233075E+007
  1533.30        933334.       0.433945E+011   5352.10       0.588929E+007  0.257485E+007
  1564.93        933334.       0.435730E+011   5349.79       0.588437E+007  0.256908E+007
  1596.55        933334.       0.437517E+011   5347.47       0.587943E+007  0.256331E+007
  1628.18        933334.       0.439305E+011   5345.14       0.587449E+007  0.255752E+007
  1659.80        933334.       0.441094E+011   5342.81       0.586954E+007  0.255172E+007
  1691.43        933334.       0.442885E+011   5340.48       0.586458E+007  0.254591E+007
  1723.05        933334.       0.444676E+011   5338.14       0.585962E+007  0.254009E+007
  1754.68        933334.       0.446469E+011   5335.79       0.585465E+007  0.253426E+007
  1786.31        933334.       0.448263E+011   5333.45       0.584967E+007  0.252843E+007
  1817.93        933334.       0.450057E+011   5331.09       0.584469E+007  0.252258E+007
  1849.56        933334.       0.451852E+011   5328.74       0.583970E+007  0.251672E+007
  1881.18        933334.       0.453648E+011   5326.38       0.583471E+007  0.251086E+007
  1912.81        933334.       0.455445E+011   5324.01       0.582969E+007  0.250499E+007
  1944.43        933334.       0.457242E+011   5321.65       0.582471E+007  0.249911E+007
  1976.06        933334.       0.459039E+011   5319.28       0.581970E+007  0.249322E+007
  2007.68        933334.       0.460837E+011   5316.90       0.581468E+007  0.248733E+007
  2039.31        933334.       0.462635E+011   5314.52       0.580966E+007  0.248142E+007
  2070.94        933334.       0.464433E+011   5312.14       0.580464E+007  0.247551E+007
  2102.56        933334.       0.466232E+011   5309.76       0.579961E+007  0.246959E+007
  2134.19        933334.       0.468031E+011   5307.37       0.579457E+007  0.246367E+007
  2165.81        933334.       0.469830E+011   5304.97       0.578954E+007  0.245774E+007
  2197.44        933334.       0.471629E+011   5302.58       0.578449E+007  0.245180E+007
  2229.06        933334.       0.473429E+011   5300.18       0.577945E+007  0.244585E+007
  2260.69        933334.       0.475228E+011   5297.78       0.577440E+007  0.243990E+007
  2292.32        933334.       0.477028E+011   5295.37       0.576934E+007  0.243394E+007
  2323.94        933334.       0.478827E+011   5292.96       0.576428E+007  0.242797E+007
  2355.57        933334.       0.480626E+011   5290.55       0.575922E+007  0.242200E+007
  2387.19        933334.       0.482426E+011   5288.13       0.575415E+007  0.241602E+007
  2418.82        933334.       0.484225E+011   5285.71       0.574908E+007  0.241003E+007
  2450.44        933334.       0.486024E+011   5283.29       0.574399E+007  0.240404E+007
  2482.07        933334.       0.487823E+011   5280.87       0.573893E+007  0.239804E+007
  2513.69        933334.       0.489621E+011   5278.44       0.573385E+007  0.239204E+007
  2545.32        933334.       0.491420E+011   5276.01       0.572876E+007  0.238602E+007
  2576.95        933334.       0.493218E+011   5273.57       0.572365E+007  0.238001E+007
  2608.57        933334.       0.495016E+011   5271.14       0.571858E+007  0.237398E+007
  2640.20        933334.       0.496814E+011   5268.70       0.571348E+007  0.236795E+007
  2671.82        933334.       0.498611E+011   5266.25       0.570838E+007  0.236192E+007
  2703.45        933334.       0.500409E+011   5263.81       0.570328E+007  0.235587E+007
  2735.07        933334.       0.502206E+011   5261.36       0.569818E+007  0.234983E+007
  2766.70        933334.       0.504002E+011   5258.90       0.569307E+007  0.234377E+007
